File: Dynamic XAS/Dynamic XAS Energy analyzed data/ESweep_0_5 Hz/Same Eo/Normalized Spectra/Ir0_5Hz_ReaddMean_VPhsCorrect_41_-219_mV_.csv.nor
# XDI/1.0 Athena/0.9.26
# Element.edge:                  K
# Element.symbol:                Co
# Column.1:                      energy eV
# Column.2:                      norm
# Column.3:                      nbkg
# Column.4:                      flat
# Column.5:                      fbkg
# Column.6:                      nder
# Column.7:                      nsec
# Athena.e0:                     7721.54
# Athena.eshift:                 0
# Athena.rbkg:                   1.0
# Athena.importance:             1
# Athena.standard:               None
# Athena.bkg_kweight:            3
# Athena.edge_step:              1.19179
# Athena.fixed_step:             no
# Athena.pre_edge_range:         -82.964 -19.904
# Athena.pre_edge_line:          -0.003078 + 0.000215052 * E
# Athena.normalization_range:    45 125.256
# Athena.post_edge_polynomial:   15.4875 - 0.00163675 * E + 0 * E^2 + 0 * E^3
# Athena.spline_range_energy:    0.000 125.180
# Athena.clamps:                 0 24
# Athena.spline_range_k:         0.000 5.732
# Athena.kweight:                2
# Athena.window:                 hanning
# Athena.phase_correction:       no
# Athena.k_range:                .4 5.35
# Athena.dk:                     .5
# Athena.r_range:                .4 5.1
# Athena.dr:                     .5
# Athena.window:                 hanning
# Athena.plot_multiplier:        1
# Athena.y_offset:               0.2
# ///
#------------------------
#   e         norm        nbkg        flat        fbkg        nder        nsec
  7600.07      -0.213528      -0.0135278  -0.213528      -0.213528       0.0123199  -0.000518458
  7624.56      -0.0460791   0.153921      -0.0460791  -0.0460791   0.00284062  -0.000212999
  7649.7      -0.0163939   0.183606      -0.0163939  -0.0163939  -0.000309348   0.000106626
  7674.73       0.0798918   0.279892       0.0798918   0.0798918   0.000190049  -0.000293309
  7700.01      -0.00921587   0.190784      -0.00921587  -0.00921587   0.000366772   0.000953675
  7700.72      -0.00288671   0.197113      -0.00288671  -0.00288671   0.0053735  -0.0199927
  7701.43      -0.00626733   0.193733      -0.00626733  -0.00626733  -0.000540982   0.0135156
  7702.15      -0.00259188   0.197408      -0.00259188  -0.00259188  -0.00254446  -0.0146264
  7702.88      -0.0064938   0.193506      -0.0064938  -0.0064938  -0.00123173   0.00635135
  7703.6      -0.00705039   0.19295      -0.00705039  -0.00705039  -3.98443e-05   0.0108849
  7704.32      -0.00193603   0.198064      -0.00193603  -0.00193603   0.00513194  -0.00984584
  7705.02      -0.00200122   0.197999      -0.00200122  -0.00200122  -0.00329547   0.000112477
  7705.75      -0.00201269   0.197987      -0.00201269  -0.00201269   0.0170855   0.0356553
  7706.47       0.0167942   0.216794       0.0167942   0.0167942   0.0308427   0.0097353
  7707.2       0.040754   0.240754       0.040754   0.040754   0.0257892  -0.0225855
  7707.91       0.052726   0.252726       0.052726   0.052726   0.00372108  -0.0217063
  7708.65       0.0534258   0.253426       0.0534258   0.0534258  -0.00104018  -0.0132636
  7709.29       0.0480459   0.248046       0.0480459   0.0480459   0.000423348   0.0258617
  7709.9       0.0526589   0.252659       0.0526589   0.0526589  -0.00287272  -0.03333
  7710.51       0.0447326   0.244733       0.0447326   0.0447326  -0.0086235   0.0235245
  7711.11       0.0455786   0.245579       0.0455787   0.0455787   0.0113359   0.00947442
  7711.73       0.049924   0.249924       0.049924   0.049924  -0.00135949  -0.0133368
  7712.33       0.0492352   0.249235       0.0492352   0.0492352  -0.00387568   0.0181528
  7712.95       0.0554545   0.255454       0.0554545   0.0554545   0.0161578   0.0264548
  7713.54       0.0704691   0.270469       0.0704691   0.0704691   0.0467585   0.057967
  7714.16       0.108777       0.308777       0.108777       0.108777       0.0792878   0.0212686
  7714.78       0.154738       0.354738       0.154738       0.154738       0.0516143  -0.0631636
  7715.39       0.176828       0.376828       0.176828       0.176828       0.0488073   0.0244763
  7715.97       0.206588       0.406588       0.206588       0.206588       0.029002  -0.0638908
  7716.26       0.212517       0.412517       0.212517       0.212517       0.0344488   0.138094
  7716.5       0.225379       0.425379       0.225379       0.225379       0.0689403   0.0548379
  7716.73       0.240959       0.440959       0.240959       0.240959       0.0467943  -0.0588683
  7716.99       0.254231       0.454231       0.254231       0.254231       0.0365787  -0.10119
  7717.23       0.26118       0.46118       0.26118       0.26118       0.0719781   0.32195
  7717.46       0.286034       0.486034       0.286034       0.286034       0.0520648  -0.270005
  7717.71       0.296745       0.496745       0.296745       0.296745       0.0954245   0.162769
  7717.96       0.317716       0.517716       0.317716       0.317716       0.0934645   0.205648
  7718.21       0.350088       0.550088       0.350088       0.350088       0.105048      -0.297564
  7718.44       0.363251       0.563251       0.363251       0.363251       0.0933419   0.241957
  7718.69       0.392304       0.592304       0.392304       0.392304       0.0914989  -0.100955
  7718.94       0.414628       0.614628       0.414628       0.414628       0.138262       0.343551
  7719.17       0.455948       0.655948       0.455948       0.455948       0.128108      -0.282122
  7719.42       0.483553       0.683553       0.483553       0.483553       0.146348       0.14692
  7719.67       0.519031       0.719031       0.519031       0.519031       0.143301       0.08712
  7719.9       0.558102       0.758102       0.558102       0.558102       0.193067       0.061712
  7720.15       0.604007       0.804007       0.604007       0.604007       0.217616       0.0580841
  7720.4       0.651385       0.851385       0.651385       0.651385       0.140985      -0.153731
  7720.65       0.690403       0.890403       0.690403       0.690403       0.187307       0.310139
  7720.88       0.744978       0.944978       0.744978       0.744978       0.209542      -0.120116
  7721.13       0.796937       0.996937       0.796937       0.796937       0.191631      -0.0260896
  7721.38       0.845764        1.04576       0.845764       0.845764       0.228368       0.19998
  7721.61       0.903846        2.23188       0.903957        2.03199       0.218162      -0.140435
  7721.86       0.957598        2.19992       0.958099        2.00042       0.262455      -0.109855
  7722.1        1.00352        2.16952        1.00439        1.97039       0.133504       0.0423687
  7722.36        1.05442        2.13816        1.05569        1.93943       0.199678      -0.196376
  7722.59        1.08985        2.10965        1.09148        1.91129       0.15135      -0.186952
  7722.85        1.1164        2.0795        1.11843        1.88153       0.101892       0.168451
  7723.05        1.14599        2.05547        1.14834        1.85782       0.14533      -0.127328
  7723.41        1.18571        2.01472        1.18861        1.81762       0.104291      -0.00183433
  7723.8        1.22951        1.97073        1.23302        1.77424       0.0872346  -0.122581
  7724.2        1.25438        1.92761        1.25851        1.73174       0.0235379  -0.154021
  7724.59        1.25498        1.8862        1.25972        1.69095       0.00930185  -0.0300087
  7725.01        1.2507        1.84385        1.25609        1.64924      -0.0333333  -0.0287592
  7726.51        1.19503        1.70251        1.20274        1.51022      -0.0398896   0.000936958
  7728.07        1.13943        1.57339        1.14957        1.38353      -0.0344629   0.00528753
  7729.59        1.09731        1.46351        1.10982        1.27602      -0.0110173   0.0145511
  7731.15        1.08888        1.3674        1.10381        1.18232      -0.00433729   0.00367637
  7732.68        1.08934        1.28706        1.10665        1.10436      -0.00765251  -0.00543071
  7734.21        1.07704        1.2198        1.09673        1.0395      -0.000705445  -0.00207278
  7735.77        1.05957        1.16387        1.08168       0.985987      -0.014367   0.00740642
  7737.31        1.06015        1.12002        1.08465       0.944526      -0.00452152  -0.01373
  7738.84        1.0283        1.08608        1.05519       0.912963      -0.0171514   0.0061024
  7740.39        1.01076        1.06083        1.04004       0.890118      -0.0157447  -0.00641698
  7741.95       0.977479        1.04321        1.0092       0.874931      -0.0237958  -0.000107765
  7746.97       0.86895        1.0271       0.908462       0.866607      -0.0158004   0.00189684
  7751.94       0.808633        1.04269       0.855861       0.889915      -0.01077   0.000976278
  7756.95       0.772217        1.05999       0.827236       0.915004      -0.00017704   0.00257218
  7761.95       0.799875        1.0739       0.86266       0.936681       0.00748161   0.00102899
  7766.97       0.853658        1.08471       0.924239       0.955295       0.0103909  -5.91212e-05
  7771.99       0.906        1.09258       0.984385       0.970962       0.0110157  -0.00104701
  7777       0.931854        1.09767        1.01802       0.983838       0.00154487  -0.000718996
  7784.15       0.937526        1.10056        1.03481       0.997841      -0.00377633  -0.000549666
  7791.28       0.915225        1.09883        1.02359        1.00719       0.000856712   0.000242267
  7798.44       0.905283        1.09304        1.02476        1.01252      -0.00357892  -0.000286914
  7805.61       0.880577        1.08373        1.01121        1.01436      -0.00322652   0.000145596
  7812.81       0.863343        1.07145        1.00516        1.01326       7.95108e-05  -5.55677e-05
  7819.99       0.843267        1.05683       0.996245        1.00981      -0.00348287   5.14977e-05
  7827.22       0.825758        1.04034       0.989969        1.00455      -0.00454441   5.1964e-05
  7834.44       0.810986        1.02268       0.986407       0.998098       0.000828084  -7.82299e-05
  7841.69       0.792027        1.00431       0.978716       0.991002      -0.00173288   0.000748569
  7845.32       0.802264       0.995076       0.994594       0.987406       0.00282029   0.00125432