File: Dynamic XAS/Dynamic XAS Energy analyzed data/ESweep_0_5 Hz/Same Eo/Normalized Spectra/Ir0_5Hz_ReaddMean_VPhsCorrect_12_250_mV_.csv.nor
# XDI/1.0 Athena/0.9.26
# Element.edge:                  K
# Element.symbol:                Co
# Column.1:                      energy eV
# Column.2:                      norm
# Column.3:                      nbkg
# Column.4:                      flat
# Column.5:                      fbkg
# Column.6:                      nder
# Column.7:                      nsec
# Athena.e0:                     7721.54
# Athena.eshift:                 0
# Athena.rbkg:                   1.0
# Athena.importance:             1
# Athena.standard:               None
# Athena.bkg_kweight:            3
# Athena.edge_step:              1.19491
# Athena.fixed_step:             no
# Athena.pre_edge_range:         -82.964 -19.904
# Athena.pre_edge_line:          0.280266 + 0.000178211 * E
# Athena.normalization_range:    45 125.256
# Athena.post_edge_polynomial:   15.7012 - 0.00166416 * E + 0 * E^2 + 0 * E^3
# Athena.spline_range_energy:    0.000 125.180
# Athena.clamps:                 0 24
# Athena.spline_range_k:         0.000 5.732
# Athena.kweight:                2
# Athena.window:                 hanning
# Athena.phase_correction:       no
# Athena.k_range:                .4 5.35
# Athena.dk:                     .5
# Athena.r_range:                .4 5.1
# Athena.dr:                     .5
# Athena.window:                 hanning
# Athena.plot_multiplier:        1
# Athena.y_offset:               0.2
# ///
#------------------------
#   e         norm        nbkg        flat        fbkg        nder        nsec
  7600.07      -0.214984      -0.0149838  -0.214984      -0.214984       0.0121083  -0.000504429
  7624.56      -0.049083   0.150917      -0.049083  -0.049083   0.00297639  -0.000203609
  7649.7      -0.0147165   0.185283      -0.0147165  -0.0147165  -0.000308521   9.18149e-05
  7674.73       0.0769609   0.276961       0.076961   0.076961   0.000189937  -0.00028007
  7700.01      -0.00838956   0.19161      -0.00838956  -0.00838956   0.000350401   0.000933511
  7700.72      -0.00214168   0.197858      -0.00214168  -0.00214168   0.00462496  -0.022125
  7701.43      -0.00664554   0.193354      -0.00664554  -0.00664554   0.00242098   0.0170167
  7702.15      -0.00226759   0.197732      -0.00226759  -0.00226759  -0.00424469  -0.017439
  7702.88      -0.00692412   0.193076      -0.00692412  -0.00692412  -0.0027916   0.00848483
  7703.6      -0.00711389   0.192886      -0.00711389  -0.00711389   0.00306054   0.0125448
  7704.32      -0.000765418   0.199235      -0.000765418  -0.000765418   0.0048574  -0.016587
  7705.02      -0.00304894   0.196951      -0.00304894  -0.00304894  -0.00519909   0.00457986
  7705.75      -0.0031271   0.196873      -0.0031271  -0.0031271   0.0155559   0.0342624
  7706.47       0.0148786   0.214879       0.0148786   0.0148786   0.0287844   0.0104904
  7707.2       0.0384274   0.238427       0.0384274   0.0384274   0.0263108  -0.0232843
  7707.91       0.0496271   0.249627       0.0496271   0.0496271   0.00587132  -0.0136587
  7708.65       0.0537949   0.253795       0.0537949   0.0537949  -0.00106728  -0.0202818
  7709.29       0.0482975   0.248298       0.0482975   0.0482975   0.00383583   0.0273124
  7709.9       0.0533447   0.253345       0.0533447   0.0533447  -0.00562852  -0.0363849
  7710.51       0.0447032   0.244703       0.0447032   0.0447032  -0.00872122   0.0170872
  7711.11       0.0425138   0.242514       0.0425138   0.0425138   0.00787007   0.0140943
  7711.73       0.0453965   0.245397       0.0453965   0.0453965  -0.00623185  -0.0139476
  7712.33       0.0430389   0.243039       0.0430389   0.0430389  -0.0116335   0.0124782
  7712.95       0.0453926   0.245393       0.0453926   0.0453926   0.0191235   0.035103
  7713.54       0.0597499   0.25975       0.0597499   0.0597499   0.042579   0.0582121
  7714.16       0.0974522   0.297452       0.0974522   0.0974522   0.0729704   0.00848189
  7714.78       0.137955       0.337955       0.137955       0.137955       0.0502811  -0.0494062
  7715.39       0.159733       0.359733       0.159733       0.159733       0.0409508   0.0123884
  7715.97       0.184994       0.384994       0.184994       0.184994       0.0320454  -0.0532199
  7716.26       0.19016       0.39016       0.19016       0.19016       0.0259397   0.184797
  7716.5       0.204985       0.404985       0.204985       0.204985       0.0583271  -0.0670505
  7716.73       0.215232       0.415232       0.215232       0.215232       0.0552835   0.064847
  7716.99       0.230484       0.430484       0.230484       0.230484       0.0386947  -0.10601
  7717.23       0.23906       0.43906       0.23906       0.23906       0.0540809   0.214665
  7717.46       0.259316       0.459316       0.259316       0.259316       0.0537625  -0.251002
  7717.71       0.266189       0.466189       0.266189       0.266189       0.0839211   0.290443
  7717.96       0.29127       0.49127       0.29127       0.29127       0.0766374   0.0156555
  7718.21       0.316843       0.516843       0.316843       0.316843       0.109943      -0.154781
  7718.44       0.332034       0.532034       0.332034       0.332034       0.0683991   0.141258
  7718.69       0.357045       0.557045       0.357045       0.357045       0.0904466   0.00114837
  7718.94       0.381228       0.581228       0.381228       0.381228       0.136179       0.238028
  7719.17       0.418176       0.618176       0.418176       0.418176       0.123528      -0.274067
  7719.42       0.441527       0.641527       0.441527       0.441527       0.161716       0.286581
  7719.67       0.48096       0.68096       0.48096       0.48096       0.117841       0.00395802
  7719.9       0.518865       0.718865       0.518865       0.518865       0.186856       0.0373761
  7720.15       0.562       0.762       0.562       0.562       0.22036       0.138106
  7720.4       0.611249       0.811249       0.611249       0.611249       0.137941      -0.165158
  7720.65       0.651474       0.851474       0.651474       0.651474       0.172561       0.297531
  7720.88       0.706445       0.906445       0.706445       0.706445       0.243565      -0.186575
  7721.13       0.754666       0.954666       0.754666       0.754666       0.2066       0.0634935
  7721.38       0.805007        1.00501       0.805007       0.805007       0.217544       0.240874
  7721.61       0.866944        2.27024       0.867055        2.07035       0.254144      -0.107176
  7721.86       0.926861        2.23716       0.927358        2.03765       0.255357      -0.12559
  7722.1       0.977871        2.20568       0.978741        2.00655       0.168843      -0.0150191
  7722.36        1.03045        2.17323        1.03171        1.97449       0.220234      -0.0598492
  7722.59        1.07554        2.14372        1.07716        1.94534       0.163477      -0.303966
  7722.85        1.10523        2.11251        1.10725        1.91452       0.12748       0.253317
  7723.05        1.14145        2.08764        1.14378        1.88997       0.168313      -0.166513
  7723.41        1.18909        2.04545        1.19197        1.84833       0.129997      -0.00731334
  7723.8        1.24084        1.99992        1.24433        1.8034       0.098725  -0.15092
  7724.2        1.26927        1.95528        1.27337        1.75938       0.0338433  -0.158386
  7724.59        1.27271        1.91242        1.27741        1.71713       0.0145252  -0.0280558
  7725.01        1.27174        1.86858        1.27709        1.67393      -0.0321228  -0.0439132
  7726.51        1.2068        1.72228        1.21445        1.52994      -0.0491938   0.00100258
  7728.07        1.14172        1.58864        1.15178        1.39871      -0.0394562   0.00802565
  7729.59        1.0967        1.47491        1.10912        1.28733      -0.0084482   0.0172873
  7731.15        1.0918        1.37544        1.10661        1.19025      -0.00192567   0.00459775
  7732.68        1.09794        1.2923        1.11511        1.10947      -0.00719006  -0.00908928
  7734.21        1.08272        1.2227        1.10227        1.04225      -0.00190101  -0.00180981
  7735.77        1.06292        1.16483        1.08487       0.986778      -0.0158245   0.0072774
  7737.31        1.0609        1.11947        1.08522       0.943785      -0.00517908  -0.012424
  7738.84        1.02954        1.08436        1.05622       0.911041      -0.0174506   0.00673192
  7740.39        1.01397        1.05826        1.04303       0.887322      -0.0143053  -0.00806914
  7741.95       0.97871        1.04006        1.01018       0.871533      -0.0243934   0.000335832
  7746.97       0.871137        1.02351       0.910345       0.862714      -0.0161205   0.00164164
  7751.94       0.805428        1.0398       0.852292       0.886667      -0.0109683   0.00108219
  7756.95       0.766224        1.05789       0.82082       0.91249      -0.00107122   0.00261391
  7761.95       0.792141        1.0725       0.854442       0.934805       0.00781312   0.00126867
  7766.97       0.850234        1.08393       0.920273       0.953973       0.0111723  -0.000110413
  7771.99       0.905604        1.09233       0.983386       0.970112       0.0109954  -0.00113791
  7777       0.932189        1.09787        1.0177       0.98338       0.00222856  -0.00067668
  7784.15       0.940745        1.10129        1.03728       0.99782      -0.00401474  -0.000624253
  7791.28       0.917525        1.09994        1.02506        1.00747       0.000910336   0.000248707
  7798.44       0.906992        1.09442        1.02555        1.01298      -0.00364569  -0.000277073
  7805.61       0.882198        1.08527        1.01183        1.0149      -0.00325845   0.000143946
  7812.81       0.86479        1.07306        1.00551        1.01379       0.000103128  -4.55371e-05
  7819.99       0.845059        1.05844       0.99686        1.01024      -0.00366629   1.85981e-05
  7827.22       0.826178        1.04187       0.989125        1.00482      -0.00440253   7.62943e-05
  7834.44       0.811301        1.02409       0.985373       0.998164       0.000823511  -7.8339e-05
  7841.69       0.792232        1.00557       0.977485       0.990825      -0.00170954   0.000794746
  7845.32       0.803632       0.996249       0.994482       0.987099       0.00314036   0.00133606