File: Dynamic XAS/Dynamic XAS Energy analyzed data/ESweep_0_5 Hz/Same Eo/Normalized Spectra/Ir0_5Hz_ReaddMean_VPhsCorrect_44_-159_mV_.csv.nor
# XDI/1.0 Athena/0.9.26
# Element.edge:                  K
# Element.symbol:                Co
# Column.1:                      energy eV
# Column.2:                      norm
# Column.3:                      nbkg
# Column.4:                      flat
# Column.5:                      fbkg
# Column.6:                      nder
# Column.7:                      nsec
# Athena.e0:                     7721.54
# Athena.eshift:                 0
# Athena.rbkg:                   1.0
# Athena.importance:             1
# Athena.standard:               None
# Athena.bkg_kweight:            3
# Athena.edge_step:              1.19238
# Athena.fixed_step:             no
# Athena.pre_edge_range:         -82.964 -19.904
# Athena.pre_edge_line:          -0.046034 + 0.000220652 * E
# Athena.normalization_range:    45 125.256
# Athena.post_edge_polynomial:   15.577 - 0.00164823 * E + 0 * E^2 + 0 * E^3
# Athena.spline_range_energy:    0.000 125.180
# Athena.clamps:                 0 24
# Athena.spline_range_k:         0.000 5.732
# Athena.kweight:                2
# Athena.window:                 hanning
# Athena.phase_correction:       no
# Athena.k_range:                .4 5.35
# Athena.dk:                     .5
# Athena.r_range:                .4 5.1
# Athena.dr:                     .5
# Athena.window:                 hanning
# Athena.plot_multiplier:        1
# Athena.y_offset:               0.2
# ///
#------------------------
#   e         norm        nbkg        flat        fbkg        nder        nsec
  7600.07      -0.213661      -0.0136607  -0.213661      -0.213661       0.0123761  -0.000522571
  7624.56      -0.0459003   0.1541      -0.0459003  -0.0459003   0.00282106  -0.000213038
  7649.7      -0.015921   0.184079      -0.015921  -0.015921  -0.000331853   0.000106287
  7674.73       0.0804455   0.280446       0.0804456   0.0804456   0.000182773  -0.000293949
  7700.01      -0.00898677   0.191013      -0.00898677  -0.00898677   0.000395911   0.000987141
  7700.72      -0.0023569   0.197643      -0.0023569  -0.0023569   0.00598815  -0.0220544
  7701.43      -0.0064411   0.193559      -0.0064411  -0.0064411  -0.00012878   0.0149188
  7702.15      -0.00273964   0.19726      -0.00273964  -0.00273964  -0.00296599  -0.0140367
  7702.88      -0.00630934   0.193691      -0.00630934  -0.00630934  -0.00242502   0.00818005
  7703.6      -0.00557653   0.194423      -0.00557653  -0.00557653   0.00237376   0.00916306
  7704.32      -6.31901e-05   0.199937      -6.31901e-05  -6.31901e-05   0.00430316  -0.016846
  7705.02      -0.00327795   0.196722      -0.00327795  -0.00327795  -0.00375127   0.0099844
  7705.75      -0.00159861   0.198401      -0.00159861  -0.00159861   0.0175162   0.0309892
  7706.47       0.0164201   0.21642       0.0164201   0.0164201   0.0301236   0.0095758
  7707.2       0.0395053   0.239505       0.0395053   0.0395053   0.025312  -0.0207605
  7707.91       0.0515626   0.251563       0.0515626   0.0515626   0.00421152  -0.0190614
  7708.65       0.053747   0.253747       0.053747   0.053747  -0.0018253  -0.0188063
  7709.29       0.0471693   0.247169       0.0471693   0.0471693   0.00207852   0.0288777
  7709.9       0.0517772   0.251777       0.0517772   0.0517772  -0.00395161  -0.033172
  7710.51       0.0439053   0.243905       0.0439053   0.0439053  -0.00772453   0.0249015
  7711.11       0.0453048   0.245305       0.0453048   0.0453048   0.012839   0.006224
  7711.73       0.0490357   0.249036       0.0490357   0.0490357  -0.0047687  -0.00888394
  7712.33       0.0494011   0.249401       0.0494011   0.0494011  -0.00307301   0.0117032
  7712.95       0.0542361   0.254236       0.0542361   0.0542361   0.0158885   0.0308601
  7713.54       0.0694677   0.269468       0.0694677   0.0694677   0.0473804   0.0609563
  7714.16       0.109158       0.309158       0.109158       0.109158       0.0800043   0.0183596
  7714.78       0.15538       0.35538       0.15538       0.15538       0.0525691  -0.0629192
  7715.39       0.177817       0.377817       0.177817       0.177817       0.046861   0.0218813
  7715.97       0.207012       0.407012       0.207012       0.207012       0.0256715  -0.0643134
  7716.26       0.212611       0.412611       0.212611       0.212611       0.0457386   0.148625
  7716.5       0.225779       0.425779       0.225779       0.225779       0.0706583   0.0424189
  7716.73       0.240919       0.440919       0.240919       0.240919       0.0428006  -0.101903
  7716.99       0.250999       0.450999       0.250999       0.250999       0.0375634   0.00555378
  7717.23       0.261003       0.461003       0.261003       0.261003       0.0676344   0.256495
  7717.46       0.284978       0.484978       0.284978       0.284978       0.0484847  -0.226792
  7717.71       0.297332       0.497332       0.297332       0.297332       0.095469   0.129332
  7717.96       0.317869       0.517869       0.317869       0.317869       0.101698       0.196141
  7718.21       0.349271       0.549271       0.349271       0.349271       0.0918412  -0.281681
  7718.44       0.362456       0.562456       0.362456       0.362456       0.102511       0.261665
  7718.69       0.392749       0.592749       0.392749       0.392749       0.0990685  -0.135146
  7718.94       0.414342       0.614342       0.414342       0.414342       0.136106       0.353794
  7719.17       0.455559       0.655559       0.455559       0.455559       0.126821      -0.272014
  7719.42       0.483673       0.683673       0.483673       0.483673       0.146089       0.139706
  7719.67       0.519227       0.719227       0.519227       0.519227       0.14753       0.0214243
  7719.9       0.554466       0.754466       0.554466       0.554466       0.186948       0.215521
  7720.15       0.605818       0.805818       0.605818       0.605818       0.219505      -0.0753024
  7720.4       0.650876       0.850876       0.650876       0.650876       0.152921      -0.0976222
  7720.65       0.690994       0.890994       0.690994       0.690994       0.178007       0.235857
  7720.88       0.742273       0.942273       0.742273       0.742273       0.208953      -0.014276
  7721.13       0.797278       0.997278       0.797278       0.797278       0.185074      -0.0841482
  7721.38       0.845728        1.04573       0.845728       0.845728       0.234942       0.188998
  7721.61       0.902802        2.23449       0.902915        2.0346       0.212359      -0.114888
  7721.86       0.957033        2.20239       0.957537        2.00289       0.268296      -0.113321
  7722.1        1.00322        2.17185        1.0041        1.97274       0.127812       0.0318371
  7722.36        1.05374        2.14036        1.05502        1.94164       0.204786      -0.193225
  7722.59        1.08898        2.11173        1.09064        1.91338       0.151789      -0.192042
  7722.85        1.11503        2.08145        1.11708        1.8835       0.104202       0.171645
  7723.05        1.14437        2.05733        1.14674        1.85969       0.138134      -0.119529
  7723.41        1.18435        2.0164        1.18728        1.81932       0.105476       0.00071068
  7723.8        1.22884        1.97223        1.23238        1.77577       0.0878172  -0.121948
  7724.2        1.2545        1.92893        1.25867        1.73309       0.0186963  -0.167558
  7724.59        1.25377        1.88735        1.25855        1.69214       0.0109368  -0.0357741
  7725.01        1.24715        1.84482        1.25258        1.65026      -0.0311352  -0.0211471
  7726.51        1.19368        1.70292        1.20146        1.51071      -0.0409744   8.02637e-05
  7728.07        1.13827        1.57332        1.14849        1.38354      -0.0353458   0.0049034
  7729.59        1.09543        1.46304        1.10805        1.27566      -0.0100464   0.0156706
  7731.15        1.08893        1.3666        1.10399        1.18166      -0.00410658   0.00277329
  7732.68        1.08913        1.28602        1.10659        1.10348      -0.00785347  -0.0059579
  7734.21        1.07533        1.21859        1.0952        1.03845       0.000687205  -0.000496978
  7735.77        1.06011        1.16253        1.08242       0.984845      -0.0154409   0.00567241
  7737.31        1.05875        1.11862        1.08347       0.943338      -0.00428285  -0.0129741
  7738.84        1.02674        1.08465        1.05387       0.911776      -0.0193085   0.00580796
  7740.39        1.00834        1.05943        1.03788       0.888971      -0.0135835  -0.00520526
  7741.95       0.977119        1.04187        1.00911       0.87386      -0.0246529  -0.000457848
  7746.97       0.86941        1.02607       0.909266       0.865927      -0.0158562   0.00187429
  7751.94       0.809343        1.04204       0.856983       0.889676      -0.0100117   0.0009173
  7756.95       0.771702        1.05959       0.8272       0.91509      -0.000153788   0.00256773
  7761.95       0.798028        1.07363       0.86136       0.936957       0.00707962   0.00114508
  7766.97       0.853407        1.08445       0.924604       0.955649       0.0107682  -7.22995e-05
  7771.99       0.907017        1.09223       0.986086       0.971299       0.0106381  -0.0011935
  7777       0.930447        1.09716        1.01737       0.984085       0.00155316  -0.000610636
  7784.15       0.937367        1.09974        1.0355       0.997874      -0.00394952  -0.000549666
  7791.28       0.916309        1.09765        1.02562        1.00696       0.000907156   0.000164958
  7798.44       0.90365        1.09151        1.02417        1.01204      -0.00364372  -0.000199578
  7805.61       0.880701        1.08191        1.01247        1.01369      -0.00318648   5.21941e-05
  7812.81       0.860397        1.06948        1.00345        1.01253       0.000146854   4.62591e-05
  7819.99       0.842507        1.0549       0.99682        1.00921      -0.00350313  -1.32864e-05
  7827.22       0.823814        1.03869       0.989457        1.00433      -0.00437522   7.95749e-05
  7834.44       0.809296        1.02162       0.986247       0.99857       0.000827415  -8.37219e-05
  7841.69       0.790304        1.00422       0.978622       0.992542      -0.0016552   0.000808406
  7845.32       0.802102       0.995632       0.996109       0.98964       0.00325015   0.00135134