File: Dynamic XAS/Dynamic XAS Energy analyzed data/ESweep_0_5 Hz/Same Eo/Normalized Spectra/Ir0_5Hz_ReaddMean_VPhsCorrect_34_-232_mV_.csv.nor
# XDI/1.0 Athena/0.9.26
# Element.edge:                  K
# Element.symbol:                Co
# Column.1:                      energy eV
# Column.2:                      norm
# Column.3:                      nbkg
# Column.4:                      flat
# Column.5:                      fbkg
# Column.6:                      nder
# Column.7:                      nsec
# Athena.e0:                     7721.54
# Athena.eshift:                 0
# Athena.rbkg:                   1.0
# Athena.importance:             1
# Athena.standard:               None
# Athena.bkg_kweight:            3
# Athena.edge_step:              1.19364
# Athena.fixed_step:             no
# Athena.pre_edge_range:         -82.964 -19.904
# Athena.pre_edge_line:          -0.021369 + 0.000217402 * E
# Athena.normalization_range:    45 125.256
# Athena.post_edge_polynomial:   15.6303 - 0.00165503 * E + 0 * E^2 + 0 * E^3
# Athena.spline_range_energy:    0.000 125.180
# Athena.clamps:                 0 24
# Athena.spline_range_k:         0.000 5.732
# Athena.kweight:                2
# Athena.window:                 hanning
# Athena.phase_correction:       no
# Athena.k_range:                .4 5.35
# Athena.dk:                     .5
# Athena.r_range:                .4 5.1
# Athena.dr:                     .5
# Athena.window:                 hanning
# Athena.plot_multiplier:        1
# Athena.y_offset:               0.2
# ///
#------------------------
#   e         norm        nbkg        flat        fbkg        nder        nsec
  7600.07      -0.211405      -0.0114054  -0.211405      -0.211405       0.0120797  -0.000501876
  7624.56      -0.0455453   0.154455      -0.0455453  -0.0455453   0.0028625  -0.000210066
  7649.7      -0.0155319   0.184468      -0.0155319  -0.0155319  -0.00035476   0.000103842
  7674.73       0.0793382   0.279338       0.0793382   0.0793382   0.000219922  -0.000288353
  7700.01      -0.00805046   0.19195      -0.00805046  -0.00805046   0.000333162   0.000869633
  7700.72      -0.00245109   0.197549      -0.00245109  -0.00245109   0.00560851  -0.0198915
  7701.43      -0.00651823   0.193482      -0.00651823  -0.00651823   0.000873366   0.0150912
  7702.15      -0.00270921   0.197291      -0.00270921  -0.00270921  -0.00333519  -0.0153337
  7702.88      -0.00684418   0.193156      -0.00684418  -0.00684418  -0.00227529   0.00844628
  7703.6      -0.00653476   0.193465      -0.00653476  -0.00653476   0.00234284   0.00920534
  7704.32      -0.0014251   0.198575      -0.0014251  -0.0014251   0.0051862  -0.0115232
  7705.02      -0.00234113   0.197659      -0.00234113  -0.00234113  -0.00540413   0.00186696
  7705.75      -0.00235742   0.197643      -0.00235742  -0.00235742   0.0174353   0.0360783
  7706.47       0.0166679   0.216668       0.0166679   0.0166679   0.0285873   0.00857671
  7707.2       0.0402432   0.240243       0.0402432   0.0402432   0.0264976  -0.0221555
  7707.91       0.0520583   0.252058       0.0520583   0.0520583   0.00473202  -0.020971
  7708.65       0.0529871   0.252987       0.0529871   0.0529871  -0.00167745  -0.0131356
  7709.29       0.0478669   0.247867       0.0478669   0.0478669   0.00332457   0.0252636
  7709.9       0.0525019   0.252502       0.0525019   0.0525019  -0.00471844  -0.034128
  7710.51       0.0442978   0.244298       0.0442978   0.0442978  -0.00924393   0.0221343
  7711.11       0.0443683   0.244368       0.0443683   0.0443683   0.0109397   0.0124671
  7711.73       0.049003   0.249003       0.049003   0.049003  -0.00334335  -0.012691
  7712.33       0.0488402   0.24884       0.0488402   0.0488402  -0.00834526   0.00887424
  7712.95       0.0520578   0.252058       0.0520578   0.0520578   0.0228306   0.0329521
  7713.54       0.0664865   0.266487       0.0664865   0.0664865   0.0460245   0.0652824
  7714.16       0.106987       0.306987       0.106987       0.106987       0.0732466   0.00514359
  7714.78       0.148988       0.348988       0.148988       0.148988       0.0507917  -0.0491054
  7715.39       0.172358       0.372358       0.172358       0.172358       0.0465949   0.010712
  7715.97       0.198569       0.398569       0.198569       0.198569       0.0291319  -0.0517628
  7716.26       0.204386       0.404386       0.204386       0.204386       0.0341331   0.149118
  7716.5       0.21777       0.41777       0.21777       0.21777       0.0679379   0.0207429
  7716.73       0.231833       0.431833       0.231833       0.231833       0.0549416  -0.0190211
  7716.99       0.24596       0.44596       0.24596       0.24596       0.0502039  -0.0349108
  7717.23       0.257532       0.457532       0.257532       0.257532       0.0370162   0.122124
  7717.46       0.275312       0.475312       0.275312       0.275312       0.0792349  -0.132607
  7717.71       0.286609       0.486609       0.286609       0.286609       0.0921761   0.261772
  7717.96       0.314357       0.514357       0.314357       0.314357       0.0673391  -0.0836843
  7718.21       0.336885       0.536885       0.336885       0.336885       0.128263       0.00121289
  7718.44       0.358479       0.558479       0.358479       0.358479       0.0581604  -0.0500708
  7718.69       0.378543       0.578543       0.378543       0.378543       0.0992792   0.156922
  7718.94       0.406737       0.606737       0.406737       0.406737       0.127665       0.139704
  7719.17       0.44179       0.64179       0.44179       0.44179       0.130132      -0.174508
  7719.42       0.469179       0.669179       0.469179       0.469179       0.184984       0.196654
  7719.67       0.507333       0.707333       0.507333       0.507333       0.112017       0.0770851
  7719.9       0.548363       0.748363       0.548363       0.548363       0.182372      -0.0201657
  7720.15       0.591282       0.791282       0.591282       0.591282       0.216869       0.135462
  7720.4       0.640173       0.840173       0.640173       0.640173       0.151597      -0.133264
  7720.65       0.68201       0.88201       0.68201       0.68201       0.178103       0.219236
  7720.88       0.733928       0.933928       0.733928       0.733928       0.231806      -0.131817
  7721.13       0.782256       0.982256       0.782256       0.782256       0.192002       0.0339692
  7721.38       0.831009        1.03101       0.831009       0.831009       0.21834       0.242244
  7721.61       0.891522        2.25071       0.891635        2.05082       0.242572      -0.169034
  7721.86       0.946139        2.21811       0.946644        2.01861       0.242428      -0.0915129
  7722.1       0.993915        2.18709       0.994799        1.98798       0.155452       0.00891961
  7722.36        1.04463        2.15511        1.04591        1.95639       0.21383      -0.0821464
  7722.59        1.08667        2.12603        1.08832        1.92768       0.136345      -0.329467
  7722.85        1.1115        2.09528        1.11355        1.89733       0.115265       0.265296
  7723.05        1.14435        2.07077        1.14672        1.87314       0.155374      -0.18662
  7723.41        1.18435        2.0292        1.18727        1.83213       0.104638       0.0199923
  7723.8        1.23181        1.98434        1.23535        1.78789       0.0951161  -0.15125
  7724.2        1.25585        1.94037        1.26002        1.74454       0.020157  -0.153491
  7724.59        1.2557        1.89814        1.26049        1.70293       0.00682741   0.00100868
  7725.01        1.25571        1.85495        1.26115        1.66039      -0.029187  -0.0412606
  7726.51        1.19797        1.71084        1.20577        1.51863      -0.0421757   0.000258527
  7728.07        1.13856        1.57923        1.1488        1.38947      -0.0376661   0.0064138
  7729.59        1.09534        1.46725        1.10797        1.27989      -0.00843398   0.015749
  7731.15        1.08862        1.36935        1.10369        1.18442      -0.00351052   0.00406271
  7732.68        1.09169        1.28755        1.10917        1.10502      -0.00775702  -0.00691393
  7734.21        1.07852        1.21911        1.0984        1.03899      -0.000962342  -0.00254166
  7735.77        1.05904        1.16223        1.08137       0.984556      -0.0160303   0.0083912
  7737.31        1.06001        1.11768        1.08474       0.942419      -0.00414609  -0.0143931
  7738.84        1.02698        1.08324        1.05412       0.910386      -0.0175573   0.00692559
  7740.39        1.0102        1.05768        1.03977       0.887249      -0.0146397  -0.00685564
  7741.95       0.976638        1.03991        1.00866       0.871929      -0.0243028  -4.04175e-05
  7746.97       0.868313        1.02408       0.908203       0.863965      -0.0158892   0.00178571
  7751.94       0.805437        1.04049       0.853117       0.888167      -0.010405   0.00110029
  7756.95       0.769549        1.05849       0.825094       0.914034      -0.000921144   0.00249624
  7761.95       0.795844        1.07288       0.859229       0.93627       0.0077864   0.001174
  7766.97       0.851924        1.084       0.92318       0.955258       0.0104128  -6.22379e-05
  7771.99       0.906487        1.092       0.985622       0.971138       0.0110234  -0.00115746
  7777       0.931775        1.0971        1.01877       0.984092       0.00207761  -0.000662389
  7784.15       0.9391        1.09982        1.03731       0.998034      -0.0041062  -0.000612272
  7791.28       0.915263        1.09779        1.02466        1.00719       0.000800171   0.000244296
  7798.44       0.903884        1.09164        1.02451        1.01227      -0.00372222  -0.00024312
  7805.61       0.879984        1.082        1.01187        1.01389      -0.00297066   7.30877e-05
  7812.81       0.859808        1.0695        1.00298        1.01268      -6.91914e-05   5.68931e-05
  7819.99       0.842594        1.05486       0.997035        1.0093      -0.00352787  -1.6985e-05
  7827.22       0.824387        1.03861       0.990169        1.00439      -0.00454283   7.72772e-05
  7834.44       0.810235        1.02155       0.987335       0.99865       0.000946359  -0.000130539
  7841.69       0.789151        1.00423       0.977627       0.992709      -0.00158764   0.000883216
  7845.32       0.801874       0.995715       0.996044       0.989885       0.00350481   0.00140288