File: Dynamic XAS/Dynamic XAS Energy analyzed data/ESweep_0_5 Hz/Same Eo/Normalized Spectra/Ir0_5Hz_ReaddMean_VPhsCorrect_2_77_mV_.csv.nor
# XDI/1.0 Athena/0.9.26
# Element.edge:                  K
# Element.symbol:                Co
# Column.1:                      energy eV
# Column.2:                      norm
# Column.3:                      nbkg
# Column.4:                      flat
# Column.5:                      fbkg
# Column.6:                      nder
# Column.7:                      nsec
# Athena.e0:                     7721.54
# Athena.eshift:                 0
# Athena.rbkg:                   1.0
# Athena.importance:             1
# Athena.standard:               None
# Athena.bkg_kweight:            3
# Athena.edge_step:              1.19397
# Athena.fixed_step:             no
# Athena.pre_edge_range:         -82.964 -19.904
# Athena.pre_edge_line:          0.118310 + 0.000199301 * E
# Athena.normalization_range:    45 125.256
# Athena.post_edge_polynomial:   15.6831 - 0.00166183 * E + 0 * E^2 + 0 * E^3
# Athena.spline_range_energy:    0.000 125.180
# Athena.clamps:                 0 24
# Athena.spline_range_k:         0.000 5.732
# Athena.kweight:                2
# Athena.window:                 hanning
# Athena.phase_correction:       no
# Athena.k_range:                .4 5.35
# Athena.dk:                     .5
# Athena.r_range:                .4 5.1
# Athena.dr:                     .5
# Athena.window:                 hanning
# Athena.plot_multiplier:        1
# Athena.y_offset:               0.2
# ///
#------------------------
#   e         norm        nbkg        flat        fbkg        nder        nsec
  7600.07      -0.216905      -0.0169049  -0.216905      -0.216905       0.0125253  -0.000532546
  7624.56      -0.0480741   0.151926      -0.0480741  -0.0480741   0.00289217  -0.000209737
  7649.7      -0.0147911   0.185209      -0.0147911  -0.0147911  -0.000399266   9.82501e-05
  7674.73       0.079835   0.279835       0.079835   0.079835   0.000243929  -0.000289711
  7700.01      -0.00866277   0.191337      -0.00866277  -0.00866277   0.000413117   0.000941754
  7700.72      -0.00242686   0.197573      -0.00242686  -0.00242686   0.00376209  -0.0202496
  7701.43      -0.00602695   0.193973      -0.00602695  -0.00602695   0.00279468   0.015516
  7702.15      -0.00152425   0.198476      -0.00152425  -0.00152425  -0.00354481  -0.0190762
  7702.88      -0.00690543   0.193095      -0.00690543  -0.00690543  -0.00382751   0.010485
  7703.6      -0.00676841   0.193232      -0.00676841  -0.00676841   0.00286797   0.0117514
  7704.32      -0.000504918   0.199495      -0.000504918  -0.000504918   0.00405333  -0.0158987
  7705.02      -0.00252262   0.197477      -0.00252262  -0.00252262  -0.00383195   0.00388907
  7705.75      -0.00267144   0.197329      -0.00267144  -0.00267144   0.0170852   0.0345316
  7706.47       0.0154063   0.215406       0.0154063   0.0154063   0.0293317   0.011183
  7707.2       0.0393886   0.239389       0.0393886   0.0393886   0.0268299  -0.0225283
  7707.91       0.0514128   0.251413       0.0514128   0.0514128   0.00301329  -0.0201683
  7708.65       0.0529785   0.252978       0.0529785   0.0529785  -0.000770859  -0.0135468
  7709.29       0.0482335   0.248233       0.0482335   0.0482335   0.00415051   0.0215065
  7709.9       0.0518115   0.251812       0.0518115   0.0518115  -0.00662525  -0.0309277
  7710.51       0.0437563   0.243756       0.0437563   0.0437563  -0.00670501   0.0213527
  7711.11       0.0436875   0.243688       0.0436875   0.0436875   0.0091139   0.0132744
  7711.73       0.0484729   0.248473       0.0484729   0.0484729  -0.0054241  -0.0145819
  7712.33       0.0477538   0.247754       0.0477538   0.0477538  -0.00542661   0.00990176
  7712.95       0.050796   0.250796       0.050796   0.050796   0.0200403   0.0348602
  7713.54       0.0657189   0.265719       0.0657189   0.0657189   0.0476011   0.0604321
  7714.16       0.104878       0.304878       0.104878       0.104878       0.0738915   0.011385
  7714.78       0.147925       0.347925       0.147925       0.147925       0.0466506  -0.0495974
  7715.39       0.172148       0.372148       0.172148       0.172148       0.0524216   0.00962142
  7715.97       0.198799       0.398799       0.198799       0.198799       0.0183241  -0.0493732
  7716.26       0.205145       0.405145       0.205145       0.205145       0.038927   0.0685512
  7716.5       0.214464       0.414464       0.214464       0.214464       0.0782488   0.15287
  7716.73       0.23245       0.43245       0.23245       0.23245       0.0603029  -0.15592
  7716.99       0.242231       0.442231       0.242231       0.242231       0.0368853   0.0783755
  7717.23       0.256121       0.456121       0.256121       0.256121       0.0350577   0.0390171
  7717.46       0.271328       0.471328       0.271328       0.271328       0.0789131  -0.0417814
  7717.71       0.28529       0.48529       0.28529       0.28529       0.0841746   0.200247
  7717.96       0.31188       0.51188       0.31188       0.31188       0.0937625  -0.10567
  7718.21       0.332014       0.532014       0.332014       0.332014       0.0993025   0.0544154
  7718.44       0.354495       0.554495       0.354495       0.354495       0.0815831  -0.0943829
  7718.69       0.372776       0.572776       0.372776       0.372776       0.107467       0.297327
  7718.94       0.407166       0.607166       0.407166       0.407166       0.109198      -0.0791002
  7719.17       0.435393       0.635393       0.435393       0.435393       0.120792       0.076343
  7719.42       0.470728       0.670728       0.470728       0.470728       0.191753       0.063099
  7719.67       0.508885       0.708885       0.508885       0.508885       0.128352      -0.0259104
  7719.9       0.543796       0.743796       0.543796       0.543796       0.164767       0.188891
  7720.15       0.593136       0.793136       0.593136       0.593136       0.20138      -0.0162511
  7720.4       0.639607       0.839607       0.639607       0.639607       0.187678      -0.085769
  7720.65       0.681907       0.881907       0.681907       0.681907       0.173094       0.132103
  7720.88       0.729184       0.929184       0.729184       0.729184       0.227799       0.040309
  7721.13       0.78325       0.98325       0.78325       0.78325       0.17302      -0.107994
  7721.38       0.829424        1.02942       0.829424       0.829424       0.232262       0.262448
  7721.61       0.88869        2.24025       0.888803        2.04036       0.24148      -0.1747
  7721.86       0.941624        2.20802       0.942126        2.00852       0.250508      -0.0677629
  7722.1       0.989092        2.17736       0.989971        1.97824       0.150598       0.0682579
  7722.36        1.04328        2.14574        1.04456        1.94701       0.213032      -0.143524
  7722.59        1.08489        2.11699        1.08653        1.91863       0.143617      -0.317217
  7722.85        1.11001        2.08659        1.11205        1.88862       0.104127       0.26714
  7723.05        1.14319        2.06236        1.14554        1.86471       0.161649      -0.160383
  7723.41        1.18612        2.02126        1.18903        1.82417       0.109749       0.00942365
  7723.8        1.23522        1.9769        1.23874        1.78043       0.096451  -0.17376
  7724.2        1.25735        1.93342        1.2615        1.73756       0.0155048  -0.129614
  7724.59        1.25905        1.89167        1.26381        1.69642       0.0157048  -0.0469587
  7725.01        1.25316        1.84895        1.25856        1.65436      -0.0329694  -0.0265315
  7726.51        1.19479        1.70642        1.20253        1.51416      -0.0434286   0.00281873
  7728.07        1.14103        1.57622        1.1512        1.38639      -0.0347769   0.00317998
  7729.59        1.09579        1.46541        1.10834        1.27796      -0.0108503   0.017462
  7731.15        1.09107        1.36848        1.10605        1.18346      -0.00215662   0.00137674
  7732.68        1.08971        1.28746        1.10708        1.10483      -0.00849216  -0.00480396
  7734.21        1.07706        1.21964        1.09681        1.0394       0.000578331  -0.00073911
  7735.77        1.06242        1.16323        1.08461       0.985419      -0.0158135   0.00405189
  7737.31        1.05775        1.11901        1.08233       0.943592      -0.00554367  -0.0109044
  7738.84        1.02731        1.08477        1.05428       0.911746      -0.0178902   0.0058313
  7740.39        1.01055        1.05931        1.03993       0.888692      -0.0140887  -0.00716091
  7741.95       0.976259        1.04154        1.00808       0.873362      -0.0244911   0.000149597
  7746.97       0.868745        1.02529       0.908383       0.864928      -0.0157588   0.00179737
  7751.94       0.806961        1.04104       0.85434       0.888416      -0.0106666   0.000974844
  7756.95       0.769029        1.05854       0.824224       0.913731      -0.00061604   0.00259261
  7761.95       0.795684        1.07265       0.858669       0.935632       0.0078271   0.00115604
  7766.97       0.85167        1.08366       0.922478       0.954467       0.0106241  -4.15885e-05
  7771.99       0.906659        1.09171       0.985294       0.970347       0.0105944  -0.00115922
  7777       0.932326        1.09698        1.01877       0.983424       0.00230428  -0.000762121
  7784.15       0.93586        1.10009        1.03345       0.997686      -0.00395278  -0.000495793
  7791.28       0.914166        1.09854        1.02288        1.00726       0.000575533   0.0002365
  7798.44       0.904537        1.09288        1.0244        1.01275      -0.00361901  -0.000259768
  7805.61       0.881538        1.08364        1.01259        1.01469      -0.00318071   0.000108806
  7812.81       0.864113        1.07135        1.00638        1.01362       0.000289126  -6.37834e-05
  7819.99       0.843423        1.05664       0.99689        1.01011      -0.00371404   3.38133e-05
  7827.22       0.824372        1.03996       0.989108        1.0047      -0.00437121   6.44849e-05
  7834.44       0.808712        1.022       0.984694       0.997986       0.000942076  -4.18117e-05
  7841.69       0.790774        1.00322       0.978061       0.990508      -0.00207018   0.000722996
  7845.32       0.800849       0.993728       0.993794       0.986673       0.0027755   0.0013349