File: Dynamic XAS/Dynamic XAS Energy analyzed data/ESweep_0_5 Hz/Same Eo/Normalized Spectra/Ir0_5Hz_ReaddMean_VPhsCorrect_28_-106_mV_.csv.nor
# XDI/1.0 Athena/0.9.26
# Element.edge:                  K
# Element.symbol:                Co
# Column.1:                      energy eV
# Column.2:                      norm
# Column.3:                      nbkg
# Column.4:                      flat
# Column.5:                      fbkg
# Column.6:                      nder
# Column.7:                      nsec
# Athena.e0:                     7721.54
# Athena.eshift:                 0
# Athena.rbkg:                   1.0
# Athena.importance:             1
# Athena.standard:               None
# Athena.bkg_kweight:            3
# Athena.edge_step:              1.195
# Athena.fixed_step:             no
# Athena.pre_edge_range:         -82.964 -19.904
# Athena.pre_edge_line:          0.203303 + 0.000188169 * E
# Athena.normalization_range:    45 125.256
# Athena.post_edge_polynomial:   15.7178 - 0.00166632 * E + 0 * E^2 + 0 * E^3
# Athena.spline_range_energy:    0.000 125.180
# Athena.clamps:                 0 24
# Athena.spline_range_k:         0.000 5.732
# Athena.kweight:                2
# Athena.window:                 hanning
# Athena.phase_correction:       no
# Athena.k_range:                .4 5.35
# Athena.dk:                     .5
# Athena.r_range:                .4 5.1
# Athena.dr:                     .5
# Athena.window:                 hanning
# Athena.plot_multiplier:        1
# Athena.y_offset:               0.2
# ///
#------------------------
#   e         norm        nbkg        flat        fbkg        nder        nsec
  7600.07      -0.213616      -0.0136162  -0.213616      -0.213616       0.0120395  -0.000495005
  7624.56      -0.0469612   0.153039      -0.0469612  -0.0469612   0.00296461  -0.000207772
  7649.7      -0.0145999   0.1854      -0.0145999  -0.0145999  -0.000351646   9.49942e-05
  7674.73       0.0770708   0.277071       0.0770708   0.0770708   0.000218298  -0.000280475
  7700.01      -0.00854358   0.191456      -0.00854358  -0.00854358   0.000387127   0.000917936
  7700.72      -0.00244728   0.197553      -0.00244728  -0.00244728   0.00420106  -0.020896
  7701.43      -0.00650385   0.193496      -0.00650385  -0.00650385   0.00216238   0.0177403
  7702.15      -0.0012956   0.198704      -0.0012956  -0.0012956  -0.0039169  -0.0189008
  7702.88      -0.00587722   0.194123      -0.00587722  -0.00587722  -0.00328824   0.00624071
  7703.6      -0.00716868   0.192831      -0.00716868  -0.00716868   0.00511206   0.0151048
  7704.32      -0.000593577   0.199406      -0.000593577  -0.000593577   0.00278338  -0.0150777
  7705.02      -0.00189828   0.198102      -0.00189828  -0.00189828  -0.00415424   0.00121095
  7705.75      -0.00265417   0.197346      -0.00265417  -0.00265417   0.0166673   0.0355949
  7706.47       0.0153836   0.215384       0.0153836   0.0153836   0.0278983   0.00913495
  7707.2       0.0382581   0.238258       0.0382581   0.0382581   0.0271294  -0.0197427
  7707.91       0.0506377   0.250638       0.0506377   0.0506377   0.00317794  -0.0178195
  7708.65       0.0538062   0.253806       0.0538062   0.0538062   0.00201936  -0.0161695
  7709.29       0.0492874   0.249287       0.0492874   0.0492874   0.000654377   0.0212064
  7709.9       0.052968   0.252968       0.052968   0.052968  -0.00679692  -0.0298039
  7710.51       0.0454372   0.245437       0.0454372   0.0454372  -0.00600694   0.0157136
  7711.11       0.0438284   0.243828       0.0438284   0.0438284   0.0066551   0.0113707
  7711.73       0.0463176   0.246318       0.0463176   0.0463176  -0.00429829  -0.00520728
  7712.33       0.0468297   0.24683       0.0468297   0.0468297  -0.00730885  -2.29694e-05
  7712.95       0.0473431   0.247343       0.0473431   0.0473431   0.0173728   0.0428698
  7713.54       0.0626491   0.262649       0.0626491   0.0626491   0.0446361   0.056075
  7714.16       0.100539       0.300539       0.100539       0.100539       0.0757798   0.0109781
  7714.78       0.142176       0.342176       0.142176       0.142176       0.0456547  -0.0414408
  7715.39       0.16802       0.36802       0.16802       0.16802       0.0504598  -0.00395925
  7715.97       0.191513       0.391513       0.191513       0.191513       0.0191112  -0.0236382
  7716.26       0.199734       0.399734       0.199734       0.199734       0.0386232   0.0185422
  7716.5       0.207863       0.407863       0.207863       0.207863       0.0706928   0.138814
  7716.73       0.223877       0.423877       0.223877       0.223877       0.0621231  -0.112895
  7716.99       0.234217       0.434217       0.234217       0.234217       0.0364025   0.0595067
  7717.23       0.247563       0.447563       0.247563       0.247563       0.0288342   0.0694768
  7717.46       0.264       0.464       0.264       0.264       0.0742393  -0.117128
  7717.71       0.27477       0.47477       0.27477       0.27477       0.0792161   0.271534
  7717.96       0.302598       0.502598       0.302598       0.302598       0.103064      -0.110856
  7718.21       0.323654       0.523654       0.323654       0.323654       0.0912818  -0.00381626
  7718.44       0.343541       0.543541       0.343541       0.343541       0.076206  -0.0226509
  7718.69       0.363468       0.563468       0.363468       0.363468       0.114945       0.237295
  7718.94       0.396061       0.596061       0.396061       0.396061       0.0962031  -0.0590905
  7719.17       0.423738       0.623738       0.423738       0.423738       0.128173       0.0463198
  7719.42       0.456637       0.656637       0.456637       0.456637       0.184388       0.147442
  7719.67       0.497312       0.697312       0.497312       0.497312       0.134307      -0.123948
  7719.9       0.5288       0.7288       0.5288       0.5288       0.155071       0.275282
  7720.15       0.579832       0.779832       0.579832       0.579832       0.213165       0.00459421
  7720.4       0.629108       0.829108       0.629108       0.629108       0.175036      -0.160421
  7720.65       0.669653       0.869653       0.669653       0.669653       0.172824       0.116745
  7720.88       0.714394       0.914394       0.714394       0.714394       0.247481       0.098405
  7721.13       0.769341       0.969341       0.769341       0.769341       0.156553      -0.11493
  7721.38       0.81597        1.01597       0.81597       0.81597       0.238255       0.274759
  7721.61       0.876396        2.26083       0.876507        2.06094       0.245678      -0.144255
  7721.86       0.93243        2.228       0.93293        2.0285       0.259169      -0.0739312
  7722.1       0.982557        2.19678       0.983432        1.99765       0.162467       0.0370717
  7722.36        1.03754        2.16458        1.03881        1.96585       0.214521      -0.181655
  7722.59        1.07761        2.13531        1.07925        1.93694       0.152038      -0.215968
  7722.85        1.10737        2.10434        1.10939        1.90637       0.117936       0.188292
  7723.05        1.14051        2.07967        1.14285        1.88201       0.163048      -0.106036
  7723.41        1.1883        2.03781        1.1912        1.84071       0.12034      -0.0220062
  7723.8        1.23796        1.99264        1.24147        1.79615       0.105061      -0.153408
  7724.2        1.26389        1.94836        1.26801        1.75249       0.0139319  -0.153439
  7724.59        1.26561        1.90585        1.27035        1.71058       0.0186252  -0.0348551
  7725.01        1.26174        1.86235        1.26712        1.66774      -0.0347909  -0.0334522
  7726.51        1.20093        1.71722        1.20864        1.52493      -0.0456384   0.00157914
  7728.07        1.14158        1.58465        1.15171        1.39478      -0.0364293   0.00495353
  7729.59        1.09501        1.47184        1.10751        1.28434      -0.00956316   0.0187247
  7731.15        1.09193        1.37318        1.10684        1.18809      -0.00187198   0.00260867
  7732.68        1.09511        1.29072        1.1124        1.10801      -0.00731751  -0.007869
  7734.21        1.07981        1.22171        1.09948        1.04138       0.00020913  -0.000657238
  7735.77        1.06267        1.16432        1.08477       0.986411      -0.016623   0.00612253
  7737.31        1.06051        1.11935        1.08499       0.943821      -0.00604802  -0.0127754
  7738.84        1.02817        1.08455        1.05503       0.911399      -0.0175212   0.00689265
  7740.39        1.01201        1.05868        1.04126       0.887932      -0.0150939  -0.00694583
  7741.95       0.978853        1.04065        1.01053       0.87233      -0.0240307  -0.000111955
  7746.97       0.870645        1.0243       0.910108       0.863765      -0.0158937   0.00172933
  7751.94       0.806485        1.0405       0.853655       0.887668      -0.0110479   0.00103834
  7756.95       0.767747        1.05842       0.822697       0.913369      -0.00085045   0.00261563
  7761.95       0.79417        1.07283       0.856876       0.935537       0.00763977   0.00122431
  7766.97       0.85165        1.08404       0.922144       0.954539       0.0110041  -0.000137947
  7771.99       0.905716        1.09221       0.984003       0.9705       0.0110407  -0.00109835
  7777       0.931996        1.09752        1.01806       0.983587       0.0022057  -0.000702677
  7784.15       0.938987        1.10062        1.03615       0.99778      -0.0040755  -0.00059279
  7791.28       0.915807        1.09899        1.02404        1.00722       0.000700616   0.000253434
  7798.44       0.905557        1.09323        1.02489        1.01257      -0.0034275  -0.000271277
  7805.61       0.881343        1.08393        1.01182        1.0144      -0.00324057   0.000133467
  7812.81       0.863976        1.07167        1.00561        1.01331      -5.5277e-05  -5.88441e-05
  7819.99       0.843599        1.05712       0.996388        1.00991      -0.00354909   5.47759e-05
  7827.22       0.825957        1.04077       0.989965        1.00478      -0.00432611   2.58045e-05
  7834.44       0.809692        1.02339       0.984896       0.99859       0.000897502  -5.57358e-05
  7841.69       0.790415        1.00546       0.976873       0.991916      -0.00182355   0.000841298
  7845.32       0.802937       0.996512       0.995029       0.988604       0.00344959   0.00145266