File: Dynamic XAS/Dynamic XAS Energy analyzed data/ESweep_0_5 Hz/Same Eo/Normalized Spectra/Ir0_5Hz_ReaddMean_VPhsCorrect_16_219_mV_.csv.nor
# XDI/1.0 Athena/0.9.26
# Element.edge:                  K
# Element.symbol:                Co
# Column.1:                      energy eV
# Column.2:                      norm
# Column.3:                      nbkg
# Column.4:                      flat
# Column.5:                      fbkg
# Column.6:                      nder
# Column.7:                      nsec
# Athena.e0:                     7721.54
# Athena.eshift:                 0
# Athena.rbkg:                   1.0
# Athena.importance:             1
# Athena.standard:               None
# Athena.bkg_kweight:            3
# Athena.edge_step:              1.19581
# Athena.fixed_step:             no
# Athena.pre_edge_range:         -82.964 -19.904
# Athena.pre_edge_line:          0.280652 + 0.000178068 * E
# Athena.normalization_range:    45 125.256
# Athena.post_edge_polynomial:   15.7275 - 0.00166755 * E + 0 * E^2 + 0 * E^3
# Athena.spline_range_energy:    0.000 125.180
# Athena.clamps:                 0 24
# Athena.spline_range_k:         0.000 5.732
# Athena.kweight:                2
# Athena.window:                 hanning
# Athena.phase_correction:       no
# Athena.k_range:                .4 5.35
# Athena.dk:                     .5
# Athena.r_range:                .4 5.1
# Athena.dr:                     .5
# Athena.window:                 hanning
# Athena.plot_multiplier:        1
# Athena.y_offset:               0.2
# ///
#------------------------
#   e         norm        nbkg        flat        fbkg        nder        nsec
  7600.07      -0.214886      -0.0148859  -0.214886      -0.214886       0.0121021  -0.000502486
  7624.56      -0.0486356   0.151364      -0.0486356  -0.0486356   0.00300049  -0.000205683
  7649.7      -0.0152951   0.184705      -0.0152951  -0.0152951  -0.000311016   9.18808e-05
  7674.73       0.0754022   0.275402       0.0754022   0.0754022   0.000174508  -0.000275839
  7700.01      -0.00824998   0.19175      -0.00824998  -0.00824998   0.000391805   0.000890495
  7700.72      -0.00235268   0.197647      -0.00235268  -0.00235268   0.00444681  -0.0206663
  7701.43      -0.00649776   0.193502      -0.00649776  -0.00649776   0.00037947   0.0165211
  7702.15      -0.0020178   0.197982      -0.0020178  -0.0020178  -0.00343128  -0.017584
  7702.88      -0.00664722   0.193353      -0.00664722  -0.00664722  -0.00201213   0.00765376
  7703.6      -0.00724561   0.192754      -0.00724561  -0.00724561   0.00301898   0.0126321
  7704.32      -0.00126253   0.198737      -0.00126253  -0.00126253   0.00422026  -0.0155168
  7705.02      -0.00335635   0.196644      -0.00335635  -0.00335635  -0.00472919   0.00655681
  7705.75      -0.00223534   0.197765      -0.00223534  -0.00223534   0.016411   0.0304215
  7706.47       0.0149308   0.214931       0.0149308   0.0149308   0.028754   0.011695
  7707.2       0.0382646   0.238265       0.0382646   0.0382646   0.0252771  -0.0196234
  7707.91       0.0511621   0.251162       0.0511621   0.0511621   0.0076242  -0.0195935
  7708.65       0.0539193   0.253919       0.0539193   0.0539193  -0.00106366  -0.0149499
  7709.29       0.0495897   0.24959       0.0495897   0.0495897   0.00297676   0.022321
  7709.9       0.0538698   0.25387       0.0538698   0.0538698  -0.0054993  -0.0360644
  7710.51       0.0445842   0.244584       0.0445842   0.0445842  -0.0111336   0.0213865
  7711.11       0.0433316   0.243332       0.0433316   0.0433316   0.00839099   0.00917722
  7711.73       0.0453882   0.245388       0.0453882   0.0453882  -0.00677914  -0.0130664
  7712.33       0.0425449   0.242545       0.0425449   0.0425449  -0.00996336   0.0164564
  7712.95       0.0459203   0.24592       0.0459203   0.0459203   0.0166865   0.0252459
  7713.54       0.0578335   0.257834       0.0578335   0.0578335   0.0412348   0.0646691
  7714.16       0.0954191   0.295419       0.0954191   0.0954191   0.0727749   0.0118957
  7714.78       0.137104       0.337104       0.137104       0.137104       0.050574  -0.0545633
  7715.39       0.158144       0.358144       0.158144       0.158144       0.0428135   0.0221717
  7715.97       0.186095       0.386095       0.186095       0.186095       0.0272398  -0.0770869
  7716.26       0.189406       0.389406       0.189406       0.189406       0.0369217   0.19272
  7716.5       0.203076       0.403076       0.203076       0.203076       0.0563239   0.0297503
  7716.73       0.217946       0.417946       0.217946       0.217946       0.0441119  -0.121647
  7716.99       0.22649       0.42649       0.22649       0.22649       0.0388498   0.00824657
  7717.23       0.235171       0.435171       0.235171       0.235171       0.0553482   0.230806
  7717.46       0.256446       0.456446       0.256446       0.256446       0.0555051  -0.223554
  7717.71       0.266069       0.466069       0.266069       0.266069       0.0844833   0.171773
  7717.96       0.286506       0.486506       0.286506       0.286506       0.0698225   0.106709
  7718.21       0.312706       0.512706       0.312706       0.312706       0.106227      -0.168708
  7718.44       0.327664       0.527664       0.327664       0.327664       0.0922464   0.173816
  7718.69       0.354436       0.554436       0.354436       0.354436       0.0675503  -0.0796015
  7718.94       0.375764       0.575764       0.375764       0.375764       0.147376       0.300149
  7719.17       0.413605       0.613605       0.413605       0.413605       0.123239      -0.281974
  7719.42       0.437441       0.637441       0.437441       0.437441       0.143501       0.216027
  7719.67       0.473251       0.673251       0.473251       0.473251       0.124598       0.072996
  7719.9       0.5118       0.7118       0.5118       0.5118       0.194486       0.055583
  7720.15       0.55676       0.75676       0.55676       0.55676       0.212114       0.0832871
  7720.4       0.60466       0.80466       0.60466       0.60466       0.137563      -0.135513
  7720.65       0.64534       0.84534       0.64534       0.64534       0.191392       0.295061
  7720.88       0.700593       0.900593       0.700593       0.700593       0.21643      -0.143712
  7721.13       0.75181       0.95181       0.75181       0.75181       0.199256       0.0510784
  7721.38       0.804342        1.00434       0.804342       0.804342       0.244422       0.210374
  7721.61       0.866548        2.27355       0.866659        2.07366       0.241035      -0.185216
  7721.86       0.921995        2.2404       0.922492        2.0409       0.277075      -0.0405362
  7722.1       0.973411        2.20887       0.974281        2.00974       0.149303       0.0481915
  7722.36        1.03046        2.17636        1.03172        1.97762       0.225224      -0.170341
  7722.59        1.07312        2.1468        1.07474        1.94842       0.177007      -0.214573
  7722.85        1.10574        2.11553        1.10775        1.91754       0.122898       0.174708
  7723.05        1.14055        2.09061        1.14288        1.89294       0.175627      -0.111458
  7723.41        1.19075        2.04835        1.19363        1.85123       0.128198      -0.0252854
  7723.8        1.24257        2.00273        1.24606        1.80622       0.106902      -0.14491
  7724.2        1.27203        1.95801        1.27613        1.76211       0.0333009  -0.154836
  7724.59        1.27703        1.91507        1.28174        1.71978       0.0131322  -0.0509724
  7725.01        1.27398        1.87114        1.27933        1.6765      -0.0338246  -0.0391197
  7726.51        1.20821        1.72455        1.21588        1.53222      -0.0483517   0.00111107
  7728.07        1.14254        1.59063        1.15261        1.4007      -0.0406162   0.0082867
  7729.59        1.09756        1.47664        1.10999        1.28907      -0.00830208   0.0173602
  7731.15        1.09287        1.37694        1.10769        1.19176      -0.00144537   0.00398923
  7732.68        1.09776        1.29358        1.11495        1.11077      -0.0081435  -0.00792967
  7734.21        1.08402        1.22379        1.10358        1.04335      -0.000510546  -0.00289486
  7735.77        1.06311        1.16574        1.08508       0.987706      -0.0160049   0.00756797
  7737.31        1.06072        1.12022        1.08505       0.944554      -0.00548369  -0.0119314
  7738.84        1.03013        1.08496        1.05684       0.911668      -0.0173526   0.00637345
  7740.39        1.0145        1.05873        1.04359       0.887821      -0.015079  -0.00749512
  7741.95       0.980554        1.04041        1.01206       0.871915      -0.0239108  -6.33459e-05
  7746.97       0.870621        1.02356       0.909868       0.862808      -0.0164936   0.00178238
  7751.94       0.806071        1.03967       0.852983       0.886578      -0.0111651   0.000979793
  7756.95       0.765471        1.05764       0.820121       0.912288      -0.000656096   0.00269697
  7761.95       0.79206        1.07219       0.854424       0.934551       0.00721855   0.0011617
  7766.97       0.848124        1.08361       0.918233       0.953717       0.0113372   8.0354e-05
  7771.99       0.906249        1.09203       0.984109       0.969895       0.0112894  -0.00121196
  7777       0.933717        1.09764        1.01931       0.983233       0.00216484  -0.000756496
  7784.15       0.940066        1.10118        1.0367       0.997807      -0.00399441  -0.000584114
  7791.28       0.916686        1.09997        1.02433        1.00761       0.000833079   0.000280161
  7798.44       0.907607        1.09458        1.02629        1.01326      -0.00346565  -0.000291697
  7805.61       0.88352        1.08551        1.01328        1.01527      -0.00330634   0.000104243
  7812.81       0.864768        1.07332        1.00563        1.01419       0.000211199  -1.99175e-05
  7819.99       0.845015        1.05862       0.996968        1.01057      -0.0039294   4.93685e-06
  7827.22       0.825398        1.04184       0.988509        1.00495      -0.0043728   8.45459e-05
  7834.44       0.810218        1.0237       0.984464       0.997943       0.000823266  -5.0647e-05
  7841.69       0.792298        1.00462       0.977737       0.990061      -0.00172222   0.000747428
  7845.32       0.803025       0.994942       0.994067       0.985984       0.00295528   0.00128857