File: Dynamic XAS/Dynamic XAS Energy analyzed data/ESweep_0_5 Hz/Same Eo/Normalized Spectra/Ir0_5Hz_ReaddMean_VPhsCorrect_13_248_mV_.csv.nor
# XDI/1.0 Athena/0.9.26
# Element.edge:                  K
# Element.symbol:                Co
# Column.1:                      energy eV
# Column.2:                      norm
# Column.3:                      nbkg
# Column.4:                      flat
# Column.5:                      fbkg
# Column.6:                      nder
# Column.7:                      nsec
# Athena.e0:                     7721.54
# Athena.eshift:                 0
# Athena.rbkg:                   1.0
# Athena.importance:             1
# Athena.standard:               None
# Athena.bkg_kweight:            3
# Athena.edge_step:              1.19596
# Athena.fixed_step:             no
# Athena.pre_edge_range:         -82.964 -19.904
# Athena.pre_edge_line:          0.324661 + 0.000172405 * E
# Athena.normalization_range:    45 125.256
# Athena.post_edge_polynomial:   15.7599 - 0.0016717 * E + 0 * E^2 + 0 * E^3
# Athena.spline_range_energy:    0.000 125.180
# Athena.clamps:                 0 24
# Athena.spline_range_k:         0.000 5.732
# Athena.kweight:                2
# Athena.window:                 hanning
# Athena.phase_correction:       no
# Athena.k_range:                .4 5.35
# Athena.dk:                     .5
# Athena.r_range:                .4 5.1
# Athena.dr:                     .5
# Athena.window:                 hanning
# Athena.plot_multiplier:        1
# Athena.y_offset:               0.2
# ///
#------------------------
#   e         norm        nbkg        flat        fbkg        nder        nsec
  7600.07      -0.214852      -0.0148525  -0.214852      -0.214852       0.0120227  -0.000495954
  7624.56      -0.0488537   0.151146      -0.0488537  -0.0488537   0.00299904  -0.000203537
  7649.7      -0.0143379   0.185662      -0.0143379  -0.0143379  -0.000296726   9.00402e-05
  7674.73       0.0763776   0.276378       0.0763776   0.0763776   0.000190437  -0.00027758
  7700.01      -0.00836257   0.191637      -0.00836257  -0.00836256   0.000375428   0.00091876
  7700.72      -0.00223411   0.197766      -0.00223411  -0.00223411   0.00338444  -0.0211773
  7701.43      -0.00639562   0.193604      -0.00639562  -0.00639562   0.00275798   0.0164529
  7702.15      -0.00196801   0.198032      -0.00196801  -0.00196801  -0.0034618  -0.0184257
  7702.88      -0.00708692   0.192913      -0.00708692  -0.00708692  -0.00325505   0.00955323
  7703.6      -0.00717712   0.192823      -0.00717712  -0.00717712   0.00260111   0.0121647
  7704.32      -0.000926702   0.199073      -0.000926701  -0.000926701   0.00555129  -0.0152221
  7705.02      -0.00261554   0.197384      -0.00261554  -0.00261554  -0.00560329   0.0028786
  7705.75      -0.00293063   0.197069      -0.00293063  -0.00293063   0.0162412   0.0350979
  7706.47       0.0152813   0.215281       0.0152813   0.0152813   0.0288624   0.00886844
  7707.2       0.0381919   0.238192       0.0381919   0.0381919   0.0257333  -0.0202133
  7707.91       0.0503615   0.250362       0.0503615   0.0503615   0.00559413  -0.0166245
  7708.65       0.053948   0.253948       0.053948   0.053948  -0.000110592  -0.0174656
  7709.29       0.0492117   0.249212       0.0492117   0.0492117   0.00372042   0.0239191
  7709.9       0.0537061   0.253706       0.0537061   0.0537061  -0.00632737  -0.0354536
  7710.51       0.0448636   0.244864       0.0448636   0.0448636  -0.00799254   0.0173447
  7711.11       0.0425724   0.242572       0.0425724   0.0425724   0.00668155   0.0136414
  7711.73       0.0451837   0.245184       0.0451836   0.0451836  -0.00607138  -0.0132185
  7712.33       0.0428302   0.24283       0.0428302   0.0428302  -0.0115935   0.0129046
  7712.95       0.0453508   0.245351       0.0453508   0.0453508   0.0179039   0.0341296
  7713.54       0.0595289   0.259529       0.0595289   0.0595289   0.0425792   0.0575903
  7714.16       0.0968011   0.296801       0.0968011   0.0968011   0.0726669   0.0116313
  7714.78       0.138075       0.338075       0.138075       0.138075       0.0511591  -0.0538697
  7715.39       0.158967       0.358967       0.158967       0.158967       0.0405763   0.0185843
  7715.97       0.185527       0.385527       0.185527       0.185527       0.0320519  -0.0697245
  7716.26       0.189139       0.389139       0.189139       0.189139       0.0272827   0.207017
  7716.5       0.203871       0.403871       0.203871       0.203871       0.0576682  -0.0388432
  7716.73       0.2157       0.4157       0.2157       0.2157       0.053336   0.0196053
  7716.99       0.229825       0.429825       0.229825       0.229825       0.0420174  -0.0947109
  7717.23       0.237967       0.437967       0.237967       0.237967       0.053545   0.224299
  7717.46       0.258366       0.458366       0.258366       0.258366       0.0445505  -0.234836
  7717.71       0.266364       0.466364       0.266364       0.266364       0.0905658   0.23282
  7717.96       0.288978       0.488978       0.288978       0.288978       0.0721907   0.0828164
  7718.21       0.315957       0.515957       0.315957       0.315957       0.10874      -0.190807
  7718.44       0.33034       0.53034       0.33034       0.33034       0.0744887   0.159614
  7718.69       0.355618       0.555618       0.355618       0.355618       0.0881831  -0.0138207
  7718.94       0.379214       0.579214       0.379214       0.379214       0.134682       0.254593
  7719.17       0.416567       0.616567       0.416567       0.416567       0.12772      -0.277002
  7719.42       0.440178       0.640178       0.440178       0.440178       0.152218       0.259544
  7719.67       0.478295       0.678295       0.478295       0.478295       0.122451       0.0361984
  7719.9       0.51686       0.71686       0.51686       0.51686       0.191044       0.0430206
  7720.15       0.561056       0.761056       0.561056       0.561056       0.216083       0.0904463
  7720.4       0.608626       0.808626       0.608626       0.608626       0.137455      -0.129528
  7720.65       0.64934       0.84934       0.64934       0.64934       0.175418       0.287685
  7720.88       0.704195       0.904195       0.704195       0.704195       0.238445      -0.184358
  7721.13       0.752428       0.952428       0.752428       0.752428       0.207166       0.0696603
  7721.38       0.803135        1.00314       0.803135       0.803135       0.222081       0.253021
  7721.61       0.866137        2.26776       0.866248        2.06787       0.245356      -0.139698
  7721.86       0.925213        2.23477       0.92571        2.03526       0.266851      -0.111494
  7722.1       0.976193        2.20337       0.977063        2.00424       0.165906       0.0246382
  7722.36        1.03128        2.171        1.03254        1.97226       0.224579      -0.139339
  7722.59        1.07396        2.14157        1.07558        1.9432       0.160526      -0.253405
  7722.85        1.1042        2.11044        1.10622        1.91246       0.131042       0.236424
  7723.05        1.14005        2.08564        1.14238        1.88797       0.170505      -0.149529
  7723.41        1.18859        2.04356        1.19146        1.84644       0.128951      -0.00687929
  7723.8        1.2414        1.99815        1.24488        1.80163       0.0969336  -0.16204
  7724.2        1.26915        1.95362        1.27324        1.75772       0.0370039  -0.148467
  7724.59        1.27345        1.91088        1.27815        1.71558       0.0200605  -0.0367476
  7725.01        1.27198        1.86714        1.27733        1.67249      -0.0340247  -0.0432321
  7726.51        1.20618        1.72121        1.21384        1.52887      -0.0500482   0.00119564
  7728.07        1.14069        1.58789        1.15075        1.39795      -0.0391652   0.00898394
  7729.59        1.0975        1.47442        1.10991        1.28683      -0.00973825   0.0162004
  7731.15        1.09189        1.37516        1.1067        1.18997      -0.000999378   0.00479542
  7732.68        1.09779        1.29218        1.11497        1.10936      -0.00710295  -0.00894917
  7734.21        1.08268        1.22272        1.10223        1.04226      -0.00163953  -0.00214025
  7735.77        1.06219        1.16493        1.08414       0.986883      -0.0159919   0.00777462
  7737.31        1.06069        1.11963        1.085       0.943946      -0.00478811  -0.0124874
  7738.84        1.02968        1.08455        1.05637       0.911229      -0.0175476   0.00626335
  7740.39        1.01337        1.05845        1.04244       0.887512      -0.0149112  -0.00713639
  7741.95       0.979609        1.04023        1.01108       0.871703      -0.0241288   9.54681e-06
  7746.97       0.871454        1.02351       0.910664       0.862721      -0.0161805   0.00165496
  7751.94       0.805499        1.0396       0.852366       0.886469      -0.0111972   0.00107917
  7756.95       0.765972        1.05755       0.820571       0.912145      -0.00100063   0.00259424
  7761.95       0.791077        1.07208       0.853383       0.934385       0.00773737   0.00134291
  7766.97       0.850232        1.08349       0.920276       0.953535       0.011246  -0.000116449
  7771.99       0.906514        1.09192       0.984301       0.969706       0.0111381  -0.00120269
  7777       0.932378        1.09753        1.01789       0.983043       0.00218814  -0.000653955
  7784.15       0.94089        1.10108        1.03743       0.997625      -0.00396548  -0.000630581
  7791.28       0.917305        1.09991        1.02484        1.00744       0.000961776   0.000259582
  7798.44       0.906964        1.09454        1.02553        1.01311      -0.00359553  -0.000270349
  7805.61       0.882707        1.08551        1.01235        1.01514      -0.00338748   0.000104007
  7812.81       0.863773        1.07334        1.0045        1.01408       7.33662e-05   7.57369e-06
  7819.99       0.845255        1.05866       0.997066        1.01047      -0.00360391   4.21283e-06
  7827.22       0.826844        1.0419       0.989802        1.00486      -0.00442772   5.35572e-05
  7834.44       0.811254        1.02375       0.985338       0.997835       0.000861698  -5.25805e-05
  7841.69       0.792822        1.00466       0.978087       0.989926      -0.00181944   0.000732951
  7845.32       0.802911       0.994965       0.993774       0.985828       0.00277949   0.00126692