File: Dynamic XAS/Dynamic XAS Energy analyzed data/ESweep_0_5 Hz/Same Eo/Normalized Spectra/Ir0_5Hz_ReaddMean_VPhsCorrect_39_-242_mV_.csv.nor
# XDI/1.0 Athena/0.9.26
# Element.edge:                  K
# Element.symbol:                Co
# Column.1:                      energy eV
# Column.2:                      norm
# Column.3:                      nbkg
# Column.4:                      flat
# Column.5:                      fbkg
# Column.6:                      nder
# Column.7:                      nsec
# Athena.e0:                     7721.54
# Athena.eshift:                 0
# Athena.rbkg:                   1.0
# Athena.importance:             1
# Athena.standard:               None
# Athena.bkg_kweight:            3
# Athena.edge_step:              1.19341
# Athena.fixed_step:             no
# Athena.pre_edge_range:         -82.964 -19.904
# Athena.pre_edge_line:          -0.015496 + 0.00021668 * E
# Athena.normalization_range:    45 125.256
# Athena.post_edge_polynomial:   15.6267 - 0.00165455 * E + 0 * E^2 + 0 * E^3
# Athena.spline_range_energy:    0.000 125.180
# Athena.clamps:                 0 24
# Athena.spline_range_k:         0.000 5.732
# Athena.kweight:                2
# Athena.window:                 hanning
# Athena.phase_correction:       no
# Athena.k_range:                .4 5.35
# Athena.dk:                     .5
# Athena.r_range:                .4 5.1
# Athena.dr:                     .5
# Athena.window:                 hanning
# Athena.plot_multiplier:        1
# Athena.y_offset:               0.2
# ///
#------------------------
#   e         norm        nbkg        flat        fbkg        nder        nsec
  7600.07      -0.21211      -0.0121105  -0.21211      -0.21211       0.0121322  -0.000502712
  7624.56      -0.0451809   0.154819      -0.0451809  -0.0451809   0.00285883  -0.000212613
  7649.7      -0.0157707   0.184229      -0.0157707  -0.0157707  -0.000325576   0.000106215
  7674.73       0.0799838   0.279984       0.0799838   0.0799838   0.000182408  -0.000293579
  7700.01      -0.00983178   0.190168      -0.00983178  -0.00983178   0.000440022   0.0011166
  7700.72      -0.00201425   0.197986      -0.00201425  -0.00201425   0.00405452  -0.0253918
  7701.43      -0.00653053   0.193469      -0.00653053  -0.00653053   0.00155301   0.01694
  7702.15      -0.0022053   0.197795      -0.0022053  -0.0022053  -0.00328906  -0.0169343
  7702.88      -0.00665279   0.193347      -0.00665279  -0.00665279  -0.00317808   0.00862116
  7703.6      -0.00656293   0.193437      -0.00656293  -0.00656293   0.00153742   0.0109286
  7704.32      -0.000775764   0.199224      -0.000775764  -0.000775764   0.00492156  -0.0144895
  7705.02      -0.00253904   0.197461      -0.00253904  -0.00253904  -0.00311274   0.00508477
  7705.75      -0.00181606   0.198184      -0.00181606  -0.00181606   0.0166095   0.0323804
  7706.47       0.0159898   0.21599       0.0159898   0.0159898   0.0309029   0.0111175
  7707.2       0.0396648   0.239665       0.0396648   0.0396648   0.0258129  -0.0209474
  7707.91       0.0522096   0.25221       0.0522096   0.0522096   0.00327411  -0.0238689
  7708.65       0.0523486   0.252349       0.0523486   0.0523486  -0.000661887  -0.0111947
  7709.29       0.0474102   0.24741       0.0474102   0.0474102  -0.000817483   0.0255977
  7709.9       0.052344   0.252344       0.052344   0.052344  -0.00179397  -0.035898
  7710.51       0.0437724   0.243772       0.0437724   0.0437724  -0.00772941   0.0255235
  7711.11       0.0447179   0.244718       0.0447179   0.0447179   0.0119258   0.00921501
  7711.73       0.0490716   0.249072       0.0490716   0.0490716  -0.00314933  -0.00998062
  7712.33       0.0496419   0.249642       0.0496419   0.0496419  -0.00602441   0.0115807
  7712.95       0.0546393   0.254639       0.0546393   0.0546393   0.0206578   0.0324573
  7713.54       0.0705761   0.270576       0.0705761   0.0705761   0.0445095   0.0582375
  7714.16       0.10997       0.30997       0.10997       0.10997       0.0777994   0.0104341
  7714.78       0.152888       0.352888       0.152888       0.152888       0.0522656  -0.0516185
  7715.39       0.176236       0.376236       0.176236       0.176236       0.0462621   0.0186006
  7715.97       0.205166       0.405166       0.205166       0.205166       0.0337071  -0.0767473
  7716.26       0.208995       0.408995       0.208995       0.208995       0.0307467   0.203147
  7716.5       0.223696       0.423696       0.223696       0.223696       0.0607761   0.0283534
  7716.73       0.239474       0.439474       0.239474       0.239474       0.0522954  -0.0634282
  7716.99       0.252672       0.452672       0.252672       0.252672       0.0446091  -0.10341
  7717.23       0.259424       0.459424       0.259424       0.259424       0.0617068   0.301461
  7717.46       0.282925       0.482925       0.282925       0.282925       0.0631176  -0.227467
  7717.71       0.294724       0.494724       0.294724       0.294724       0.0984766   0.1761
  7717.96       0.317625       0.517625       0.317625       0.317625       0.073945   0.107972
  7718.21       0.346321       0.546321       0.346321       0.346321       0.12172      -0.194808
  7718.44       0.362106       0.562106       0.362106       0.362106       0.0759999   0.169677
  7718.69       0.389509       0.589509       0.389509       0.389509       0.0915944  -0.0623861
  7718.94       0.412416       0.612416       0.412416       0.412416       0.142547       0.320138
  7719.17       0.452929       0.652929       0.452929       0.452929       0.126519      -0.288458
  7719.42       0.479269       0.679269       0.479269       0.479269       0.155053       0.178542
  7719.67       0.515349       0.715349       0.515349       0.515349       0.135226       0.134837
  7719.9       0.557831       0.757831       0.557831       0.557831       0.190526      -0.0351623
  7720.15       0.601379       0.801379       0.601379       0.601379       0.215756       0.0679952
  7720.4       0.647056       0.847056       0.647056       0.647056       0.142747      -0.0871196
  7720.65       0.688459       0.888459       0.688459       0.688459       0.182341       0.319666
  7720.88       0.745822       0.945822       0.745822       0.745822       0.212767      -0.23817
  7721.13       0.793413       0.993413       0.793413       0.793413       0.207804       0.0206789
  7721.38       0.84069        1.04069       0.84069       0.84069       0.219142       0.253786
  7721.61       0.900489        2.22883       0.900602        2.02894       0.216969      -0.158983
  7721.86       0.954952        2.19691       0.955457        1.99741       0.264746      -0.0793286
  7722.1        1.00326        2.16654        1.00414        1.96742       0.133477      -0.0394269
  7722.36        1.05143        2.13522        1.05272        1.9365       0.208906      -0.129693
  7722.59        1.0883        2.10675        1.08995        1.9084       0.140861      -0.226145
  7722.85        1.11396        2.07663        1.11601        1.87868       0.10758       0.182896
  7723.05        1.14354        2.05264        1.14591        1.85501       0.143966      -0.115827
  7723.41        1.18426        2.01193        1.18719        1.81486       0.103887      -0.00665677
  7723.8        1.22844        1.968        1.23198        1.77154       0.0926575  -0.13578
  7724.2        1.25161        1.92493        1.25577        1.7291       0.0221669  -0.132868
  7724.59        1.25381        1.88358        1.2586        1.68836       0.00986019  -0.0387612
  7725.01        1.2498        1.84128        1.25524        1.64671      -0.0323  -0.0291672
  7726.51        1.19453        1.70011        1.20232        1.5079      -0.0416767   0.00036458
  7728.07        1.13794        1.57116        1.14817        1.3814      -0.0348172   0.00596749
  7729.59        1.09643        1.46142        1.10906        1.27405      -0.0114817   0.0139768
  7731.15        1.08727        1.36544        1.10233        1.18051      -0.00379487   0.00478459
  7732.68        1.08965        1.28521        1.10712        1.10268      -0.00747697  -0.0066627
  7734.21        1.07638        1.21806        1.09625        1.03793      -0.000292505  -0.00211545
  7735.77        1.05782        1.16221        1.08014       0.984525      -0.0145838   0.0078889
  7737.31        1.05849        1.11843        1.08321       0.943155      -0.00444117  -0.0145393
  7738.84        1.02481        1.08454        1.05195       0.911672      -0.017613   0.00781593
  7740.39        1.0095        1.05934        1.03905       0.888897      -0.0151313  -0.00776124
  7741.95       0.975235        1.04177        1.00724       0.873772      -0.0239004   0.000138246
  7746.97       0.867601        1.02573       0.907473       0.865603      -0.0157277   0.00187549
  7751.94       0.80764        1.04137       0.855298       0.889031      -0.0105638   0.000943543
  7756.95       0.770763        1.05872       0.826283       0.914242      -0.000601758   0.00256542
  7761.95       0.797793        1.07269       0.86115       0.936045       0.00783427   0.00111886
  7766.97       0.853216        1.08356       0.924442       0.954785       0.0103465  -8.33365e-05
  7771.99       0.906594        1.09148       0.985694       0.970578       0.0109944  -0.0012111
  7777       0.929349        1.09662        1.0163       0.983573       0.00167739  -0.000584159
  7784.15       0.936456        1.09956        1.03462       0.997733      -0.00399819  -0.000536141
  7791.28       0.916273        1.09787        1.02563        1.00722       0.000814661   0.000163146
  7798.44       0.904397        1.09207        1.02497        1.01264      -0.00339062  -0.0002735
  7805.61       0.878439        1.08272        1.01026        1.01454      -0.00324503   0.000176924
  7812.81       0.861571        1.07035        1.00468        1.01345      -2.21055e-05  -3.7459e-05
  7819.99       0.842795        1.05558       0.997168        1.00995      -0.00345714   2.89337e-05
  7827.22       0.825415        1.03886       0.991123        1.00457      -0.00470307   2.50366e-05
  7834.44       0.809371        1.0209       0.986392       0.997926       0.00106414  -5.78552e-05
  7841.69       0.790204        1.00215       0.978596       0.990547      -0.00194522   0.000729944
  7845.32       0.799847       0.992691       0.99393       0.986774       0.00265643   0.00126767