File: Dynamic XAS/Dynamic XAS Energy analyzed data/ESweep_0_5 Hz/Same Eo/Normalized Spectra/Ir0_5Hz_ReaddMean_VPhsCorrect_15_232_mV_.csv.nor
# XDI/1.0 Athena/0.9.26
# Element.edge:                  K
# Element.symbol:                Co
# Column.1:                      energy eV
# Column.2:                      norm
# Column.3:                      nbkg
# Column.4:                      flat
# Column.5:                      fbkg
# Column.6:                      nder
# Column.7:                      nsec
# Athena.e0:                     7721.54
# Athena.eshift:                 0
# Athena.rbkg:                   1.0
# Athena.importance:             1
# Athena.standard:               None
# Athena.bkg_kweight:            3
# Athena.edge_step:              1.19607
# Athena.fixed_step:             no
# Athena.pre_edge_range:         -82.964 -19.904
# Athena.pre_edge_line:          0.223493 + 0.000185505 * E
# Athena.normalization_range:    45 125.256
# Athena.post_edge_polynomial:   15.7797 - 0.00167424 * E + 0 * E^2 + 0 * E^3
# Athena.spline_range_energy:    0.000 125.180
# Athena.clamps:                 0 24
# Athena.spline_range_k:         0.000 5.732
# Athena.kweight:                2
# Athena.window:                 hanning
# Athena.phase_correction:       no
# Athena.k_range:                .4 5.35
# Athena.dk:                     .5
# Athena.r_range:                .4 5.1
# Athena.dr:                     .5
# Athena.window:                 hanning
# Athena.plot_multiplier:        1
# Athena.y_offset:               0.2
# ///
#------------------------
#   e         norm        nbkg        flat        fbkg        nder        nsec
  7600.07      -0.213913      -0.0139131  -0.213913      -0.213913       0.0120236  -0.000495989
  7624.56      -0.0479015   0.152098      -0.0479015  -0.0479015   0.00299148  -0.000206239
  7649.7      -0.0151775   0.184823      -0.0151775  -0.0151775  -0.00030048   9.20682e-05
  7674.73       0.0750233   0.275023       0.0750233   0.0750233   0.000178973  -0.00027355
  7700.01      -0.00767604   0.192324      -0.00767604  -0.00767604   0.000345427   0.000751347
  7700.72      -0.00304016   0.19696      -0.00304016  -0.00304016   0.00464971  -0.0167322
  7701.43      -0.00653614   0.193464      -0.00653614  -0.00653614   0.0014302   0.0152974
  7702.15      -0.00204305   0.197957      -0.00204305  -0.00204305  -0.00490634  -0.0183441
  7702.88      -0.00705384   0.192946      -0.00705384  -0.00705384  -0.00119438   0.0103582
  7703.6      -0.00661445   0.193386      -0.00661445  -0.00661445   0.00237761   0.0095679
  7704.32      -0.00118511   0.198815      -0.00118511  -0.00118511   0.00486413  -0.0145562
  7705.02      -0.00332507   0.196675      -0.00332507  -0.00332507  -0.00523777   0.00560008
  7705.75      -0.00273648   0.197264      -0.00273648  -0.00273648   0.0177051   0.0324116
  7706.47       0.0149527   0.214953       0.0149527   0.0149527   0.0281032   0.0103273
  7707.2       0.0380987   0.238099       0.0380987   0.0380987   0.0255318  -0.0195462
  7707.91       0.0508502   0.25085       0.0508502   0.0508502   0.00653884  -0.019361
  7708.65       0.0535819   0.253582       0.0535819   0.0535819  -0.00083409  -0.0147973
  7709.29       0.0492989   0.249299       0.0492989   0.0492989   0.00354724   0.0221773
  7709.9       0.0535691   0.253569       0.0535691   0.0535691  -0.00611659  -0.035832
  7710.51       0.044361   0.244361       0.044361   0.044361  -0.0100645   0.0204119
  7711.11       0.0428294   0.242829       0.0428294   0.0428294   0.00771836   0.0100291
  7711.73       0.044908   0.244908       0.044908   0.044908  -0.00601689  -0.0127884
  7712.33       0.04219   0.24219       0.04219   0.04219  -0.0115084   0.0162135
  7712.95       0.0456005   0.2456       0.0456005   0.0456005   0.0165888   0.0262211
  7713.54       0.057884   0.257884       0.057884   0.057884   0.0414516   0.0645089
  7714.16       0.0958023   0.295802       0.0958023   0.0958023   0.0728697   0.0111405
  7714.78       0.137529       0.337529       0.137529       0.137529       0.0514237  -0.0562703
  7715.39       0.15798       0.35798       0.15798       0.15798       0.0417425   0.0225854
  7715.97       0.185507       0.385507       0.185507       0.185507       0.0301625  -0.0724723
  7716.26       0.189223       0.389223       0.189223       0.189223       0.0326867   0.192621
  7716.5       0.203236       0.403236       0.203236       0.203236       0.052932   0.0158761
  7716.73       0.217616       0.417616       0.217616       0.217616       0.0497842  -0.0995088
  7716.99       0.227018       0.427018       0.227018       0.227018       0.0386989   0.00317316
  7717.23       0.236233       0.436233       0.236233       0.236233       0.0540718   0.209168
  7717.46       0.256773       0.456773       0.256773       0.256773       0.0526339  -0.214466
  7717.71       0.266147       0.466147       0.266147       0.266147       0.0905186   0.176172
  7717.96       0.286606       0.486606       0.286606       0.286606       0.0655749   0.120079
  7718.21       0.313592       0.513592       0.313592       0.313592       0.110519      -0.194226
  7718.44       0.327777       0.527777       0.327777       0.327777       0.083071   0.185929
  7718.69       0.354468       0.554468       0.354468       0.354468       0.0759092  -0.0768015
  7718.94       0.375876       0.575876       0.375876       0.375876       0.143246       0.306937
  7719.17       0.414189       0.614189       0.414189       0.414189       0.125465      -0.302312
  7719.42       0.437291       0.637291       0.437291       0.437291       0.144714       0.233146
  7719.67       0.473379       0.67338       0.47338       0.47338       0.122774       0.0832591
  7719.9       0.512804       0.712804       0.512804       0.512804       0.19539       0.0361481
  7720.15       0.557498       0.757498       0.557498       0.557498       0.216297       0.0929147
  7720.4       0.605687       0.805687       0.605687       0.605687       0.129351      -0.149461
  7720.65       0.645798       0.845798       0.645798       0.645798       0.19304       0.319564
  7720.88       0.701947       0.901947       0.701947       0.701947       0.220202      -0.197095
  7721.13       0.750791       0.950791       0.750791       0.750791       0.201878       0.109973
  7721.38       0.8044        1.0044       0.8044       0.8044       0.236661       0.189336
  7721.61       0.866381        2.27075       0.866493        2.07086       0.244908      -0.172486
  7721.86       0.922363        2.23769       0.922864        2.03819       0.269736      -0.0356102
  7722.1       0.974571        2.20624       0.975448        2.00711       0.159304       0.00784472
  7722.36        1.02987        2.1738        1.03114        1.97507       0.228792      -0.124316
  7722.59        1.07364        2.14431        1.07528        1.94595       0.164654      -0.248985
  7722.85        1.10533        2.11312        1.10736        1.91515       0.131142       0.194936
  7723.05        1.14036        2.08827        1.14271        1.89062       0.176792      -0.121175
  7723.41        1.19005        2.0461        1.19296        1.84901       0.12352      -0.0267867
  7723.8        1.24109        2.0006        1.2446        1.80411       0.106066      -0.139304
  7724.2        1.27063        1.95599        1.27476        1.76012       0.034519  -0.151872
  7724.59        1.27618        1.91315        1.28092        1.7179       0.013789  -0.0476694
  7725.01        1.27425        1.86933        1.27964        1.67472      -0.0346435  -0.0423682
  7726.51        1.20796        1.72309        1.21568        1.53081      -0.0481928   0.000772545
  7728.07        1.14092        1.58948        1.15106        1.39963      -0.0403862   0.00955139
  7729.59        1.09754        1.47576        1.11006        1.28828      -0.00825844   0.0167088
  7731.15        1.09294        1.37628        1.10788        1.19122      -0.00133935   0.00390279
  7732.68        1.09771        1.2931        1.11503        1.11042      -0.00779436  -0.00821626
  7734.21        1.08319        1.22346        1.1029        1.04316      -0.00138434  -0.00249133
  7735.77        1.06245        1.16551        1.08458       0.987648      -0.015799   0.00754063
  7737.31        1.06015        1.12008        1.08467       0.944594      -0.00530415  -0.0122615
  7738.84        1.02888        1.08487        1.05578       0.911778      -0.0179706   0.00677907
  7740.39        1.01352        1.05867        1.04283       0.887979      -0.0147248  -0.00716653
  7741.95       0.980652        1.04036        1.01239       0.8721      -0.0235908  -0.000268196
  7746.97       0.870782        1.02344       0.910321       0.862975      -0.0166151   0.00177326
  7751.94       0.806068        1.03939       0.853328       0.886655      -0.011189   0.00100384
  7756.95       0.765904        1.05723       0.82096       0.91229      -0.000898666   0.00264217
  7761.95       0.791565        1.07168       0.854394       0.934505       0.00756545   0.00120967
  7766.97       0.847911        1.08301       0.918542       0.953644       0.0112054   7.50636e-05
  7771.99       0.906184        1.09138       0.984624       0.969815       0.0113969  -0.001281
  7777       0.932062        1.09693        1.01829       0.98316       0.00201957  -0.000696838
  7784.15       0.938733        1.10041        1.03608       0.997762      -0.00401049  -0.00055519
  7791.28       0.917146        1.09916        1.02559        1.0076       0.000826799   0.0002237
  7798.44       0.906968        1.09372        1.02653        1.01329      -0.00336771  -0.000271798
  7805.61       0.882801        1.0846        1.01353        1.01533      -0.00345191   0.000110684
  7812.81       0.864302        1.07233        1.00622        1.01425       0.000133895  -4.14613e-05
  7819.99       0.843691        1.05751       0.996775        1.0106      -0.00382752   1.97056e-05
  7827.22       0.823982        1.04057       0.988307        1.0049      -0.00438219   9.45019e-05
  7834.44       0.809227        1.0222       0.98477       0.997747       0.000785538  -5.21797e-05
  7841.69       0.791654        1.00283       0.978473       0.989654      -0.00169353   0.000710245
  7845.32       0.801576       0.992976       0.994039       0.98544       0.00273322   0.00121949