File: Dynamic XAS/Dynamic XAS Energy analyzed data/ESweep_0_5 Hz/Same Eo/Normalized Spectra/Ir0_5Hz_ReaddMean_VPhsCorrect_6_182_mV_.csv.nor
# XDI/1.0 Athena/0.9.26
# Element.edge:                  K
# Element.symbol:                Co
# Column.1:                      energy eV
# Column.2:                      norm
# Column.3:                      nbkg
# Column.4:                      flat
# Column.5:                      fbkg
# Column.6:                      nder
# Column.7:                      nsec
# Athena.e0:                     7721.54
# Athena.eshift:                 0
# Athena.rbkg:                   1.0
# Athena.importance:             1
# Athena.standard:               None
# Athena.bkg_kweight:            3
# Athena.edge_step:              1.19466
# Athena.fixed_step:             no
# Athena.pre_edge_range:         -82.964 -19.904
# Athena.pre_edge_line:          0.202576 + 0.000188284 * E
# Athena.normalization_range:    45 125.256
# Athena.post_edge_polynomial:   15.7041 - 0.00166456 * E + 0 * E^2 + 0 * E^3
# Athena.spline_range_energy:    0.000 125.180
# Athena.clamps:                 0 24
# Athena.spline_range_k:         0.000 5.732
# Athena.kweight:                2
# Athena.window:                 hanning
# Athena.phase_correction:       no
# Athena.k_range:                .4 5.35
# Athena.dk:                     .5
# Athena.r_range:                .4 5.1
# Athena.dr:                     .5
# Athena.window:                 hanning
# Athena.plot_multiplier:        1
# Athena.y_offset:               0.2
# ///
#------------------------
#   e         norm        nbkg        flat        fbkg        nder        nsec
  7600.07      -0.215375      -0.0153753  -0.215375      -0.215375       0.012264  -0.00051543
  7624.56      -0.0485107   0.151489      -0.0485107  -0.0485107   0.00294821  -0.000206338
  7649.7      -0.0149769   0.185023      -0.0149769  -0.0149769  -0.000383697   9.54675e-05
  7674.73       0.0781575   0.278157       0.0781575   0.0781575   0.000253992  -0.000285169
  7700.01      -0.00896121   0.191039      -0.00896121  -0.00896121   0.000358003   0.000993665
  7700.72      -0.00220604   0.197794      -0.00220604  -0.00220604   0.00410612  -0.0226212
  7701.43      -0.00644068   0.193559      -0.00644068  -0.00644068   0.00218258   0.0170573
  7702.15      -0.00176997   0.19823      -0.00176997  -0.00176997  -0.00415952  -0.0178167
  7702.88      -0.00632862   0.193671      -0.00632862  -0.00632862  -0.00279502   0.00771829
  7703.6      -0.00682271   0.193177      -0.00682271  -0.00682271   0.0039061   0.011775
  7704.32      -0.00118154   0.198818      -0.00118154  -0.00118154   0.00359389  -0.0132496
  7705.02      -0.00245914   0.197541      -0.00245914  -0.00245914  -0.00447527   0.0033274
  7705.75      -0.00211583   0.197884      -0.00211583  -0.00211583   0.0159934   0.0319241
  7706.47       0.0150732   0.215073       0.0150732   0.0150732   0.0305069   0.0123404
  7707.2       0.0387663   0.238766       0.0387663   0.0387663   0.0253717  -0.0211592
  7707.91       0.0512185   0.251218       0.0512185   0.0512185   0.00409769  -0.0190021
  7708.65       0.0538356   0.253836       0.0538356   0.0538356  -2.30781e-06  -0.0163511
  7709.29       0.048749   0.248749       0.048749   0.048749   0.00237989   0.0240892
  7709.9       0.0529741   0.252974       0.0529741   0.0529741  -0.00370501  -0.0303172
  7710.51       0.0457933   0.245793       0.0457933   0.0457933  -0.00952204   0.0124164
  7711.11       0.0433259   0.243326       0.0433259   0.0433259   0.00876494   0.020671
  7711.73       0.0483262   0.248326       0.0483262   0.0483262  -0.00595164  -0.0169596
  7712.33       0.0469326   0.246933       0.0469326   0.0469326  -0.00682268   0.00952448
  7712.95       0.0491432   0.249143       0.0491432   0.0491432   0.0208459   0.0377579
  7713.54       0.0642832   0.264283       0.0642833   0.0642833   0.044369   0.0576943
  7714.16       0.10262       0.30262       0.10262       0.10262       0.0720217   0.00367104
  7714.78       0.141921       0.341921       0.141921       0.141921       0.0476549  -0.0348953
  7715.39       0.167876       0.367876       0.167876       0.167876       0.0489059  -0.00219149
  7715.97       0.192089       0.392089       0.192089       0.192089       0.0261015  -0.0383707
  7716.26       0.198712       0.398712       0.198712       0.198712       0.0188281   0.0813455
  7716.5       0.208986       0.408986       0.208986       0.208986       0.0833757   0.107372
  7716.73       0.225197       0.425197       0.225197       0.225197       0.0534323  -0.0873719
  7716.99       0.237359       0.437359       0.237359       0.237359       0.0395041   0.0102131
  7717.23       0.249629       0.449629       0.249629       0.249629       0.037713   0.0907587
  7717.46       0.266274       0.466274       0.266274       0.266274       0.0766397  -0.142948
  7717.71       0.27572       0.47572       0.27572       0.27572       0.0833899   0.300089
  7717.96       0.303998       0.503998       0.303998       0.303998       0.0849275  -0.130627
  7718.21       0.324368       0.524368       0.324368       0.324368       0.109723       0.0465734
  7718.44       0.346608       0.546608       0.346608       0.346608       0.0616573  -0.0975093
  7718.69       0.364436       0.564436       0.364436       0.364436       0.108231       0.275853
  7718.94       0.397178       0.597178       0.397178       0.397178       0.103226      -0.0230102
  7719.17       0.427099       0.627099       0.427099       0.427099       0.13116       0.000350689
  7719.42       0.459621       0.659621       0.459621       0.459621       0.189857       0.102456
  7719.67       0.497316       0.697316       0.497316       0.497316       0.121695       0.0145923
  7719.9       0.534193       0.734193       0.534193       0.534193       0.156182       0.124583
  7720.15       0.581649       0.781649       0.581649       0.581649       0.221841       0.020486
  7720.4       0.628389       0.828389       0.628389       0.628389       0.172835      -0.0995122
  7720.65       0.670114       0.870114       0.670114       0.670114       0.172819       0.188567
  7720.88       0.720141       0.920141       0.720141       0.720141       0.237729      -0.0708549
  7721.13       0.770232       0.970232       0.770232       0.770232       0.188454      -0.0364629
  7721.38       0.816655        1.01665       0.816655       0.816655       0.214387       0.271964
  7721.61       0.87672        2.25639       0.876832        2.0565       0.250358      -0.0910397
  7721.86       0.935614        2.2237       0.936114        2.02419       0.261096      -0.135597
  7722.1       0.985077        2.19259       0.985951        1.99347       0.155457      -0.0135111
  7722.36        1.03613        2.16052        1.0374        1.96179       0.215887       0.00200062
  7722.59        1.08348        2.13136        1.08511        1.93299       0.147695      -0.471401
  7722.85        1.10523        2.10052        1.10726        1.90254       0.118771       0.434229
  7723.05        1.14369        2.07594        1.14604        1.87829       0.162844      -0.250203
  7723.41        1.18765        2.03425        1.19054        1.83715       0.117484       0.0102298
  7723.8        1.238        1.98926        1.2415        1.79276       0.0999495  -0.163573
  7724.2        1.26301        1.94515        1.26714        1.74927       0.0213866  -0.149573
  7724.59        1.26444        1.9028        1.26918        1.70753       0.0131066  -0.0245068
  7725.01        1.26195        1.85948        1.26732        1.66486      -0.0326148  -0.0363796
  7726.51        1.20201        1.71491        1.20971        1.52261      -0.0451158   0.000211486
  7728.07        1.1402        1.58285        1.15032        1.39297      -0.0357669   0.00693713
  7729.59        1.09584        1.47047        1.10833        1.28296      -0.0114344   0.017383
  7731.15        1.09184        1.37217        1.10674        1.18707      -0.000610345   0.00256608
  7732.68        1.09401        1.29002        1.11129        1.10729      -0.00842431  -0.00705329
  7734.21        1.07962        1.22125        1.09927        1.04091      -0.00120879  -0.00152354
  7735.77        1.06132        1.16406        1.0834       0.986141      -0.0157995   0.00655851
  7737.31        1.05908        1.11924        1.08353       0.943701      -0.00506747  -0.0120974
  7738.84        1.02825        1.08455        1.05508       0.911389      -0.0177451   0.00601967
  7740.39        1.01153        1.05876        1.04076       0.887994      -0.0140837  -0.00668418
  7741.95       0.978449        1.04078        1.01011       0.872436      -0.0243768  -0.000167623
  7746.97       0.869557        1.02441       0.908996       0.863852      -0.0159085   0.0018003
  7751.94       0.806483        1.04049       0.853623       0.887633      -0.0111379   0.00099617
  7756.95       0.767783        1.05832       0.8227       0.91324      -0.000745089   0.00265295
  7761.95       0.795172        1.07269       0.857841       0.935359       0.00785051   0.00106369
  7766.97       0.849562        1.0839       0.920013       0.954349       0.0111729   0.000157016
  7771.99       0.907933        1.09209       0.986173       0.970329       0.0105354  -0.00135384
  7777       0.932074        1.09745        1.01808       0.98346       0.00211674  -0.000648471
  7784.15       0.938366        1.10064        1.03547       0.997739      -0.00382418  -0.000574935
  7791.28       0.915398        1.09911        1.02356        1.00728       0.000602152   0.000278784
  7798.44       0.90666        1.09346        1.02592        1.01272      -0.00332107  -0.000335984
  7805.61       0.880641        1.08422        1.01103        1.01461      -0.00339176   0.000173873
  7812.81       0.863555        1.07198        1.00511        1.01353       0.000229412  -4.0006e-05
  7819.99       0.844429        1.05737       0.997125        1.01007      -0.00381687   2.02109e-05
  7827.22       0.826242        1.04088       0.990149        1.00478      -0.00438459   4.93714e-05
  7834.44       0.810658        1.02322       0.985755       0.998319       0.000984589  -7.90725e-05
  7841.69       0.790839        1.00489       0.977183       0.991231      -0.00187657   0.000815089
  7845.32       0.802399       0.995679       0.994374       0.987653       0.00318463   0.00139427