File: Dynamic XAS/Dynamic XAS Energy analyzed data/ESweep_0_5 Hz/Same Eo/Normalized Spectra/Ir0_5Hz_ReaddMean_VPhsCorrect_43_-182_mV_.csv.nor
# XDI/1.0 Athena/0.9.26
# Element.edge:                  K
# Element.symbol:                Co
# Column.1:                      energy eV
# Column.2:                      norm
# Column.3:                      nbkg
# Column.4:                      flat
# Column.5:                      fbkg
# Column.6:                      nder
# Column.7:                      nsec
# Athena.e0:                     7721.54
# Athena.eshift:                 0
# Athena.rbkg:                   1.0
# Athena.importance:             1
# Athena.standard:               None
# Athena.bkg_kweight:            3
# Athena.edge_step:              1.19169
# Athena.fixed_step:             no
# Athena.pre_edge_range:         -82.964 -19.904
# Athena.pre_edge_line:          -0.034843 + 0.000219169 * E
# Athena.normalization_range:    45 125.256
# Athena.post_edge_polynomial:   15.5158 - 0.00164042 * E + 0 * E^2 + 0 * E^3
# Athena.spline_range_energy:    0.000 125.180
# Athena.clamps:                 0 24
# Athena.spline_range_k:         0.000 5.732
# Athena.kweight:                2
# Athena.window:                 hanning
# Athena.phase_correction:       no
# Athena.k_range:                .4 5.35
# Athena.dk:                     .5
# Athena.r_range:                .4 5.1
# Athena.dr:                     .5
# Athena.window:                 hanning
# Athena.plot_multiplier:        1
# Athena.y_offset:               0.2
# ///
#------------------------
#   e         norm        nbkg        flat        fbkg        nder        nsec
  7600.07      -0.213556      -0.0135558  -0.213556      -0.213556       0.0123499  -0.000520613
  7624.56      -0.0459303   0.15407      -0.0459303  -0.0459303   0.00282452  -0.000212689
  7649.7      -0.0158562   0.184144      -0.0158562  -0.0158562  -0.00032399   0.000105861
  7674.73       0.0803379   0.280338       0.0803379   0.0803379   0.000176981  -0.000292578
  7700.01      -0.0083978   0.191602      -0.0083978  -0.0083978   0.000389996   0.000927811
  7700.72      -0.00229763   0.197702      -0.00229763  -0.00229763   0.00539101  -0.0213828
  7701.43      -0.006588   0.193412      -0.006588  -0.006588   0.000792724   0.0164392
  7702.15      -0.00229747   0.197703      -0.00229747  -0.00229747  -0.00292278  -0.0162853
  7702.88      -0.00644293   0.193557      -0.00644293  -0.00644293  -0.00216758   0.00840043
  7703.6      -0.00616799   0.193832      -0.00616799  -0.00616799   0.00217143   0.0109828
  7704.32      -0.000166453   0.199834      -0.000166453  -0.000166453   0.00449543  -0.0158726
  7705.02      -0.00242211   0.197578      -0.00242211  -0.00242211  -0.00438379   0.00566996
  7705.75      -0.00191953   0.19808      -0.00191953  -0.00191953   0.0172237   0.0337644
  7706.47       0.0163985   0.216398       0.0163985   0.0163985   0.0306912   0.0099351
  7707.2       0.0399715   0.239971       0.0399715   0.0399715   0.0249721  -0.0222692
  7707.91       0.051725   0.251725       0.051725   0.051725   0.00477555  -0.0183256
  7708.65       0.0539894   0.253989       0.0539894   0.0539894  -0.00277211  -0.0186399
  7709.29       0.0475575   0.247557       0.0475575   0.0475575   0.00156211   0.0281361
  7709.9       0.0520251   0.252025       0.0520251   0.0520251  -0.00249422  -0.0308105
  7710.51       0.0449006   0.244901       0.0449006   0.0449006  -0.00883597   0.0221213
  7711.11       0.046016   0.246016       0.046016   0.046016   0.013386   0.00607529
  7711.73       0.0493975   0.249397       0.0493975   0.0493975  -0.00259353  -0.007656
  7712.33       0.0498762   0.249876       0.0498762   0.0498762  -0.00428684   0.0131114
  7712.95       0.0553637   0.255364       0.0553638   0.0553638   0.015473   0.029598
  7713.54       0.0707746   0.270775       0.0707746   0.0707746   0.0475023   0.0571453
  7714.16       0.109188       0.309188       0.109188       0.109188       0.0802713   0.0228459
  7714.78       0.155853       0.355853       0.155853       0.155853       0.0536298  -0.0656107
  7715.39       0.177734       0.377734       0.177734       0.177734       0.0447127   0.0249263
  7715.97       0.207451       0.407451       0.207451       0.207451       0.0284616  -0.0671114
  7716.26       0.212932       0.412932       0.212932       0.212932       0.0428467   0.15344
  7716.5       0.22627       0.42627       0.22627       0.22627       0.0697976   0.044777
  7716.73       0.241711       0.441711       0.241711       0.241711       0.0447097  -0.0887409
  7716.99       0.252949       0.452949       0.252949       0.252949       0.0381289  -0.0326364
  7717.23       0.261875       0.461875       0.261875       0.261875       0.0673128   0.273283
  7717.46       0.285801       0.485801       0.285801       0.285801       0.0484298  -0.237572
  7717.71       0.297455       0.497455       0.297455       0.297455       0.0952188   0.147685
  7717.96       0.318432       0.518432       0.318432       0.318432       0.102593       0.19423
  7718.21       0.350159       0.550159       0.350159       0.350159       0.092661  -0.289786
  7718.44       0.36317       0.56317       0.36317       0.36317       0.103633       0.270871
  7718.69       0.393846       0.593846       0.393846       0.393846       0.0944753  -0.157363
  7718.94       0.414554       0.614554       0.414554       0.414554       0.139059       0.374777
  7719.17       0.456149       0.656149       0.456149       0.456149       0.128942      -0.28054
  7719.42       0.484151       0.684151       0.484151       0.484151       0.139871       0.154817
  7719.67       0.520474       0.720474       0.520474       0.520474       0.148677       0.0219938
  7719.9       0.556481       0.756481       0.556481       0.556481       0.189488       0.17876
  7720.15       0.606371       0.806371       0.606371       0.606371       0.215161      -0.0604575
  7720.4       0.650867       0.850867       0.650867       0.650867       0.154266      -0.0797086
  7720.65       0.691518       0.891518       0.691518       0.691518       0.180648       0.231885
  7720.88       0.743065       0.943065       0.743065       0.743065       0.205875      -0.0153002
  7721.13       0.798298       0.998298       0.798298       0.798298       0.190749      -0.0973793
  7721.38       0.84621        1.04621       0.84621       0.84621       0.230589       0.209138
  7721.61       0.903967        2.24101       0.90408        2.04112       0.215828      -0.129618
  7721.86       0.958032        2.20872       0.958534        2.00922       0.269294      -0.0986282
  7722.1        1.00488        2.178        1.00576        1.97888       0.124836       0.00374667
  7722.36        1.05428        2.14633        1.05556        1.9476       0.201954      -0.164041
  7722.59        1.09024        2.11753        1.09189        1.91918       0.156391      -0.20074
  7722.85        1.11651        2.08707        1.11855        1.88911       0.100834       0.161257
  7723.05        1.14553        2.0628        1.14789        1.86516       0.142422      -0.106602
  7723.41        1.18614        2.02163        1.18905        1.82455       0.105011      -0.0121439
  7723.8        1.22934        1.9772        1.23287        1.78073       0.0873015  -0.11401
  7724.2        1.25497        1.93365        1.25911        1.7378       0.0195309  -0.162278
  7724.59        1.25502        1.89183        1.25978        1.6966       0.00815378  -0.0390478
  7725.01        1.24868        1.84906        1.2541        1.65447      -0.0306183  -0.0221566
  7726.51        1.19485        1.70633        1.2026        1.51408      -0.0407292   0.00040823
  7728.07        1.13986        1.57599        1.15004        1.38617      -0.035024   0.00450129
  7729.59        1.0965        1.46509        1.10907        1.27765      -0.0107202   0.0156665
  7731.15        1.08946        1.36812        1.10445        1.18311      -0.00364097   0.00306825
  7732.68        1.08983        1.2871        1.10721        1.10448      -0.00783031  -0.00573774
  7734.21        1.07672        1.21931        1.0965        1.03909      -9.1352e-05  -0.00126073
  7735.77        1.06037        1.16297        1.08258       0.985186      -0.0149965   0.00642881
  7737.31        1.05971        1.11885        1.08432       0.943458      -0.00507103  -0.0129089
  7738.84        1.02856        1.08473        1.05556       0.911735      -0.0179186   0.00524941
  7740.39        1.00969        1.05941        1.0391       0.888822      -0.0145774  -0.00580565
  7741.95       0.976549        1.0418        1.0084       0.873648      -0.0246255  -5.26056e-06
  7746.97       0.87015        1.02607       0.909831       0.865749      -0.0157822   0.00181544
  7751.94       0.809919        1.04226       0.857349       0.889688      -0.0103109   0.000921701
  7756.95       0.772222        1.06       0.827476       0.915257      -8.2956e-05   0.00260541
  7761.95       0.799429        1.07416       0.862483       0.937214       0.00722156   0.00104848
  7766.97       0.853251        1.08506       0.924135       0.955942       0.0107478  -1.06022e-05
  7771.99       0.90685        1.09286       0.985571       0.971586       0.0107096  -0.00118736
  7777       0.930423        1.09779        1.01696       0.984329       0.0017287  -0.000590493
  7784.15       0.938423        1.10032        1.03612       0.998016      -0.00406745  -0.000581773
  7791.28       0.916809        1.09815        1.02564        1.00698       0.000814697   0.000166778
  7798.44       0.903685        1.09194        1.02368        1.01193      -0.00369746  -0.000188822
  7805.61       0.880823        1.0823        1.01202        1.0135      -0.0030042   7.47217e-05
  7812.81       0.861771        1.06989        1.00419        1.01232       0.000158984  -1.26497e-05
  7819.99       0.842094        1.05542       0.995728        1.00906      -0.00345922   5.24524e-05
  7827.22       0.825035        1.03944       0.989949        1.00436      -0.00448682   3.01129e-05
  7834.44       0.809575        1.02275       0.985748       0.998924       0.000790025  -6.71793e-05
  7841.69       0.790506        1.00591       0.977996       0.993402      -0.00149768   0.00086134
  7845.32       0.80366       0.997676       0.996815       0.99083       0.00362385   0.00141089