File: Dynamic XAS/Dynamic XAS Energy analyzed data/ESweep_0_5 Hz/Same Eo/Normalized Spectra/Ir0_5Hz_ReaddMean_VPhsCorrect_47_-77_mV_.csv.nor
# XDI/1.0 Athena/0.9.26
# Element.edge:                  K
# Element.symbol:                Co
# Column.1:                      energy eV
# Column.2:                      norm
# Column.3:                      nbkg
# Column.4:                      flat
# Column.5:                      fbkg
# Column.6:                      nder
# Column.7:                      nsec
# Athena.e0:                     7721.54
# Athena.eshift:                 0
# Athena.rbkg:                   1.0
# Athena.importance:             1
# Athena.standard:               None
# Athena.bkg_kweight:            3
# Athena.edge_step:              1.19237
# Athena.fixed_step:             no
# Athena.pre_edge_range:         -82.964 -19.904
# Athena.pre_edge_line:          -0.017779 + 0.00021696 * E
# Athena.normalization_range:    45 125.256
# Athena.post_edge_polynomial:   15.5784 - 0.00164844 * E + 0 * E^2 + 0 * E^3
# Athena.spline_range_energy:    0.000 125.180
# Athena.clamps:                 0 24
# Athena.spline_range_k:         0.000 5.732
# Athena.kweight:                2
# Athena.window:                 hanning
# Athena.phase_correction:       no
# Athena.k_range:                .4 5.35
# Athena.dk:                     .5
# Athena.r_range:                .4 5.1
# Athena.dr:                     .5
# Athena.window:                 hanning
# Athena.plot_multiplier:        1
# Athena.y_offset:               0.2
# ///
#------------------------
#   e         norm        nbkg        flat        fbkg        nder        nsec
  7600.07      -0.216216      -0.0162156  -0.216216      -0.216216       0.0127086  -0.00054524
  7624.56      -0.0461829   0.153817      -0.0461829  -0.0461829   0.00277969  -0.000215385
  7649.7      -0.0154378   0.184562      -0.0154378  -0.0154378  -0.000364493   0.000105425
  7674.73       0.0811518   0.281152       0.0811519   0.0811519   0.000226556  -0.000295652
  7700.01      -0.00913717   0.190863      -0.00913717  -0.00913717   0.000430849   0.00100173
  7700.72      -0.00239624   0.197604      -0.00239625  -0.00239625   0.00438049  -0.0217728
  7701.43      -0.00623093   0.193769      -0.00623093  -0.00623093   3.97534e-05   0.0142658
  7702.15      -0.00262014   0.19738      -0.00262014  -0.00262014  -0.00309026  -0.0125826
  7702.88      -0.00552603   0.194474      -0.00552603  -0.00552603  -0.000663433   0.000165013
  7703.6      -0.00833338   0.191667      -0.00833338  -0.00833338   0.00165438   0.0181318
  7704.32      -0.00170466   0.198295      -0.00170466  -0.00170466   0.00426941  -0.0154332
  7705.02      -0.00313738   0.196863      -0.00313738  -0.00313738  -0.00354084   0.00647629
  7705.75      -0.00136367   0.198636      -0.00136367  -0.00136367   0.01604   0.030141
  7706.47       0.0163009   0.216301       0.0163009   0.0163009   0.0298943   0.0109844
  7707.2       0.0397647   0.239765       0.0397647   0.0397647   0.0270218  -0.0202925
  7707.91       0.0524417   0.252442       0.0524417   0.0524417   0.00360656  -0.0229241
  7708.65       0.0532147   0.253215       0.0532147   0.0532147  -0.00231047  -0.012631
  7709.29       0.0481853   0.248185       0.0481853   0.0481853   0.002497   0.0238279
  7709.9       0.0523664   0.252366       0.0523664   0.0523664  -0.00482548  -0.0325522
  7710.51       0.0443019   0.244302       0.044302   0.044302  -0.00734527   0.0235723
  7711.11       0.045031   0.245031       0.045031   0.045031   0.0109112   0.00700927
  7711.73       0.0483529   0.248353       0.0483529   0.0483529  -0.00420232  -0.00524355
  7712.33       0.049672   0.249672       0.049672   0.049672  -0.00226884   0.0076666
  7712.95       0.0539404   0.25394       0.0539404   0.0539404   0.0173223   0.0272738
  7713.54       0.0673974   0.267397       0.0673974   0.0673974   0.0472128   0.0671914
  7714.16       0.107598       0.307598       0.107598       0.107598       0.0776871   0.0168194
  7714.78       0.15374       0.35374       0.15374       0.15374       0.0534966  -0.0608912
  7715.39       0.176848       0.376848       0.176848       0.176848       0.0472207   0.018627
  7715.97       0.205556       0.405556       0.205556       0.205556       0.0215919  -0.0664614
  7716.26       0.210636       0.410636       0.210636       0.210636       0.0465806   0.147707
  7716.5       0.223306       0.423306       0.223306       0.223306       0.071887   0.0965393
  7716.73       0.241172       0.441172       0.241172       0.241172       0.054621  -0.201364
  7716.99       0.247958       0.447958       0.247958       0.247958       0.033909   0.104265
  7717.23       0.260456       0.460456       0.260456       0.260456       0.0479082   0.180445
  7717.46       0.282426       0.482426       0.282426       0.282426       0.0647355  -0.18935
  7717.71       0.294856       0.494856       0.294856       0.294856       0.083607   0.166467
  7717.96       0.317789       0.517789       0.317789       0.317789       0.111493       0.0956793
  7718.21       0.345817       0.545817       0.345817       0.345817       0.0905306  -0.201785
  7718.44       0.360547       0.560547       0.360547       0.360547       0.107336       0.197224
  7718.69       0.388518       0.588519       0.388519       0.388519       0.0982356  -0.0319561
  7718.94       0.41369       0.61369       0.41369       0.41369       0.128611       0.202595
  7719.17       0.449519       0.649519       0.449519       0.449519       0.121826      -0.105462
  7719.42       0.481979       0.681979       0.481979       0.481979       0.154453       0.0840399
  7719.67       0.518545       0.718545       0.518545       0.518545       0.151325      -0.0438215
  7719.9       0.550871       0.750871       0.550871       0.550871       0.175028       0.30863
  7720.15       0.604881       0.804881       0.604881       0.604881       0.213184      -0.103038
  7720.4       0.650923       0.850923       0.650923       0.650923       0.166884      -0.149689
  7720.65       0.68882       0.88882       0.68882       0.68882       0.174297       0.218656
  7720.88       0.737019       0.937019       0.737019       0.737019       0.217872       0.0838496
  7721.13       0.794823       0.994823       0.794823       0.794823       0.167333      -0.134325
  7721.38       0.843107        1.04311       0.843107       0.843107       0.248701       0.208552
  7721.61       0.901182        2.23645       0.901294        2.03657       0.213853      -0.171001
  7721.86       0.953063        2.20432       0.953566        2.00482       0.269705      -0.0574259
  7722.1        1.00009        2.17375        1.00097        1.97463       0.132604       0.0466666
  7722.36        1.05243        2.14223        1.05371        1.9435       0.201574      -0.218749
  7722.59        1.08785        2.11357        1.0895        1.91521       0.146131      -0.175226
  7722.85        1.11513        2.08325        1.11717        1.88529       0.108589       0.178585
  7723.05        1.14579        2.0591        1.14816        1.86146       0.146763      -0.129554
  7723.41        1.18717        2.01812        1.19009        1.82104       0.105308       0.000645765
  7723.8        1.23319        1.9739        1.23673        1.77743       0.0867671  -0.161977
  7724.2        1.25409        1.93055        1.25824        1.73471       0.0175132  -0.134899
  7724.59        1.25372        1.88892        1.2585        1.6937       0.0115485  -0.025888
  7725.01        1.24911        1.84634        1.25454        1.65177      -0.0304422  -0.0275712
  7726.51        1.19388        1.70427        1.20165        1.51204      -0.0428738   0.00131195
  7728.07        1.13967        1.5745        1.14988        1.38471      -0.0328644   0.00460449
  7729.59        1.09732        1.46407        1.10991        1.27667      -0.0114852   0.014845
  7731.15        1.08935        1.3675        1.10438        1.18253      -0.00287311   0.00325012
  7732.68        1.08924        1.28679        1.10667        1.10422      -0.00857787  -0.00568862
  7734.21        1.07577        1.21925        1.0956        1.03908       0.000733155  -0.000457941
  7735.77        1.06097        1.16309        1.08324       0.985361      -0.0152945   0.00513931
  7737.31        1.05875        1.11909        1.08342       0.94376      -0.00531287  -0.0121583
  7738.84        1.02781        1.08504        1.05488       0.912114      -0.0178373   0.00457235
  7740.39        1.00754        1.05975        1.03703       0.889233      -0.015181  -0.00412202
  7741.95       0.977054        1.04212        1.00899       0.874054      -0.0237571  -0.000588966
  7746.97       0.869524        1.02617       0.909306       0.865953      -0.016125   0.00180251
  7751.94       0.807852        1.04204       0.855404       0.889592      -0.0103446   0.00102714
  7756.95       0.771345        1.05954       0.826741       0.914932      -0.000397934   0.00252787
  7761.95       0.79781        1.07354       0.861025       0.936756       0.00757003   0.00120851
  7766.97       0.854933        1.08436       0.925998       0.95543       0.0104844  -0.000207106
  7771.99       0.906908        1.09216       0.985829       0.971086       0.0105611  -0.00109401
  7777       0.93121        1.09713        1.01797       0.983894       0.00199089  -0.000667351
  7784.15       0.936913        1.09979        1.03486       0.997739      -0.0040699  -0.000531397
  7791.28       0.91557        1.09779        1.02468        1.0069       0.000969151   0.000175096
  7798.44       0.903145        1.09175        1.02344        1.01205      -0.00359782  -0.000217951
  7805.61       0.879488        1.08224        1.01102        1.01377      -0.00313366   9.51318e-05
  7812.81       0.860695        1.06988        1.00348        1.01267      -0.000161018  -1.99754e-05
  7819.99       0.840899        1.05534       0.994925        1.00936      -0.00332071   9.41332e-05
  7827.22       0.825897        1.03912       0.991232        1.00445      -0.00442173  -1.50489e-05
  7834.44       0.810141        1.02199       0.986764       0.99861       0.000959723  -8.86853e-05
  7841.69       0.789645        1.00446       0.977613       0.992427      -0.00192635   0.000841757
  7845.32       0.801569       0.99577       0.995216       0.989417       0.00328481   0.00143558