File: Dynamic XAS/Dynamic XAS Energy analyzed data/ESweep_0_5 Hz/Same Eo/Normalized Spectra/Ir0_5Hz_ReaddMean_VPhsCorrect_45_-134_mV_.csv.nor
# XDI/1.0 Athena/0.9.26
# Element.edge:                  K
# Element.symbol:                Co
# Column.1:                      energy eV
# Column.2:                      norm
# Column.3:                      nbkg
# Column.4:                      flat
# Column.5:                      fbkg
# Column.6:                      nder
# Column.7:                      nsec
# Athena.e0:                     7721.54
# Athena.eshift:                 0
# Athena.rbkg:                   1.0
# Athena.importance:             1
# Athena.standard:               None
# Athena.bkg_kweight:            3
# Athena.edge_step:              1.19254
# Athena.fixed_step:             no
# Athena.pre_edge_range:         -82.964 -19.904
# Athena.pre_edge_line:          -0.039419 + 0.00021981 * E
# Athena.normalization_range:    45 125.256
# Athena.post_edge_polynomial:   15.6112 - 0.00165263 * E + 0 * E^2 + 0 * E^3
# Athena.spline_range_energy:    0.000 125.180
# Athena.clamps:                 0 24
# Athena.spline_range_k:         0.000 5.732
# Athena.kweight:                2
# Athena.window:                 hanning
# Athena.phase_correction:       no
# Athena.k_range:                .4 5.35
# Athena.dk:                     .5
# Athena.r_range:                .4 5.1
# Athena.dr:                     .5
# Athena.window:                 hanning
# Athena.plot_multiplier:        1
# Athena.y_offset:               0.2
# ///
#------------------------
#   e         norm        nbkg        flat        fbkg        nder        nsec
  7600.07      -0.21447      -0.0144697  -0.21447      -0.21447       0.0124896  -0.000532153
  7624.56      -0.0464102   0.15359      -0.0464102  -0.0464102   0.00280565  -0.00021257
  7649.7      -0.0158108   0.184189      -0.0158108  -0.0158108  -0.000342844   0.000105884
  7674.73       0.0809208   0.280921       0.0809208   0.0809208   0.00017705  -0.000294731
  7700.01      -0.00863974   0.19136      -0.00863974  -0.00863974   0.000445845   0.000893152
  7700.72      -0.00288356   0.197116      -0.00288356  -0.00288356   0.00556083  -0.0184772
  7701.43      -0.00610193   0.193898      -0.00610193  -0.00610193  -0.000214575   0.0124777
  7702.15      -0.00280693   0.197193      -0.00280693  -0.00280693  -0.00295765  -0.012617
  7702.88      -0.00604779   0.193952      -0.00604779  -0.00604779  -0.00168098   0.00598907
  7703.6      -0.00613595   0.193864      -0.00613595  -0.00613595   0.00103022   0.00978364
  7704.32      -0.00112463   0.198875      -0.00112463  -0.00112463   0.00482762  -0.0143995
  7705.02      -0.00358624   0.196414      -0.00358624  -0.00358624  -0.00341294   0.0092861
  7705.75      -0.00147019   0.19853      -0.00147019  -0.00147019   0.0168186   0.0296535
  7706.47       0.0162761   0.216276       0.0162761   0.0162761   0.0302572   0.010516
  7707.2       0.0395779   0.239578       0.0395779   0.0395779   0.0252662  -0.020729
  7707.91       0.0518664   0.251866       0.0518664   0.0518664   0.00456233  -0.0204722
  7708.65       0.0535401   0.25354       0.0535401   0.0535401  -0.0012447  -0.0162835
  7709.29       0.0476531   0.247653       0.0476531   0.0476531   0.00244084   0.0267189
  7709.9       0.052106   0.252106       0.052106   0.052106  -0.00461861  -0.0344402
  7710.51       0.043603   0.243603       0.043603   0.043603  -0.0080204   0.026749
  7711.11       0.0450605   0.24506       0.0450605   0.0450605   0.0128591   0.00670413
  7711.73       0.0490274   0.249027       0.0490274   0.0490274  -0.0067826  -0.00967535
  7712.33       0.0493304   0.24933       0.0493304   0.0493303  -0.0015402   0.0118016
  7712.95       0.0541393   0.254139       0.0541393   0.0541393   0.016536   0.0290584
  7713.54       0.0687232   0.268723       0.0687232   0.0687232   0.0476402   0.0649699
  7714.16       0.109269       0.309269       0.109269       0.109269       0.0794676   0.0144337
  7714.78       0.154845       0.354845       0.154845       0.154845       0.0509563  -0.0609804
  7715.39       0.177361       0.377361       0.177361       0.177361       0.0501521   0.0212256
  7715.97       0.206402       0.406402       0.206402       0.206402       0.0209925  -0.0661372
  7716.26       0.211686       0.411686       0.211686       0.211686       0.0506135   0.159954
  7716.5       0.225219       0.425219       0.225219       0.225219       0.0706323   0.055472
  7716.73       0.241481       0.441481       0.241481       0.241481       0.0418001  -0.159157
  7716.99       0.249178       0.449178       0.249178       0.249178       0.0382433   0.073692
  7717.23       0.260798       0.460798       0.260798       0.260798       0.0608103   0.219386
  7717.46       0.284169       0.484169       0.284169       0.284169       0.055234  -0.213773
  7717.71       0.296649       0.496649       0.296649       0.296649       0.0912021   0.128303
  7717.96       0.317248       0.517248       0.317248       0.317248       0.105319       0.194707
  7718.21       0.34863       0.54863       0.34863       0.34863       0.0912405  -0.287372
  7718.44       0.361456       0.561456       0.361456       0.361456       0.10979       0.259882
  7718.69       0.391255       0.591255       0.391255       0.391255       0.094442  -0.0999455
  7718.94       0.414355       0.614355       0.414355       0.414355       0.133182       0.31405
  7719.17       0.454697       0.654697       0.454697       0.454697       0.128274      -0.247832
  7719.42       0.48334       0.68334       0.48334       0.48334       0.144399       0.13084
  7719.67       0.518898       0.718898       0.518898       0.518898       0.152384      -0.000122302
  7719.9       0.552858       0.752858       0.552858       0.552858       0.18006       0.258932
  7720.15       0.605535       0.805535       0.605535       0.605535       0.221113      -0.0709056
  7720.4       0.652115       0.852115       0.652115       0.652115       0.153817      -0.144407
  7720.65       0.690892       0.890892       0.690892       0.690892       0.175422       0.223173
  7720.88       0.740178       0.940178       0.740178       0.740178       0.216748       0.0472275
  7721.13       0.796868       0.996868       0.796868       0.796868       0.174249      -0.114601
  7721.38       0.845204        1.0452       0.845204       0.845204       0.240648       0.189023
  7721.61       0.902172        2.22566       0.902285        2.02577       0.21314      -0.118117
  7721.86       0.956092        2.19386       0.956597        1.99436       0.264137      -0.106265
  7722.1        1.00237        2.1636        1.00326        1.96449       0.132522       0.0383396
  7722.36        1.0534        2.1324        1.05468        1.93368       0.202814      -0.216817
  7722.59        1.08772        2.10403        1.08937        1.90568       0.150289      -0.164948
  7722.85        1.11445        2.07402        1.1165        1.87608       0.106629       0.176508
  7723.05        1.14457        2.05012        1.14694        1.85249       0.139563      -0.131897
  7723.41        1.18479        2.00956        1.18772        1.81249       0.105711      -0.000423144
  7723.8        1.22936        1.96578        1.23291        1.76933       0.0863302  -0.124503
  7724.2        1.25472        1.92287        1.25889        1.72705       0.0204373  -0.166241
  7724.59        1.25388        1.88167        1.25868        1.68646       0.00847535  -0.0321567
  7725.01        1.24774        1.83952        1.25319        1.64497      -0.0306308  -0.0234483
  7726.51        1.19279        1.69887        1.20059        1.50667      -0.0418498   0.000955778
  7728.07        1.13799        1.57039        1.14823        1.38063      -0.034094   0.00460665
  7729.59        1.09506        1.46104        1.1077        1.27368      -0.0103465   0.0156679
  7731.15        1.08845        1.36539        1.10354        1.18048      -0.00430446   0.00267701
  7732.68        1.08833        1.28545        1.10582        1.10294      -0.00813316  -0.00570411
  7734.21        1.0748        1.21852        1.0947        1.03842       0.000966873  -0.000709759
  7735.77        1.05933        1.16286        1.08169       0.985207      -0.0153603   0.00604277
  7737.31        1.05863        1.11922        1.08339       0.943981      -0.00381777  -0.0130843
  7738.84        1.02701        1.08544        1.05418       0.912606      -0.0197633   0.00551168
  7740.39        1.0083        1.06031        1.03789       0.889905      -0.0131616  -0.00488226
  7741.95       0.977546        1.04278        1.0096       0.874825      -0.0244095  -0.00060227
  7746.97       0.868953        1.02671       0.90888       0.866641      -0.0160523   0.00191505
  7751.94       0.809024        1.0422       0.856748       0.889927      -0.0100349   0.000900783
  7756.95       0.771107        1.05938       0.826704       0.91498      -0.000181105   0.0026094
  7761.95       0.798194        1.07319       0.861638       0.936629       0.00727352   0.0011293
  7766.97       0.853939        1.0839       0.925262       0.955223       0.0103521  -0.000127097
  7771.99       0.906541        1.09167       0.985749       0.970876       0.0108486  -0.00113462
  7777       0.930448        1.09667        1.01752       0.983743       0.0015917  -0.000656912
  7784.15       0.936038        1.09944        1.03434       0.997741      -0.00388519  -0.000496193
  7791.28       0.916374        1.09759        1.02588        1.00709       0.000898767   0.000122711
  7798.44       0.902946        1.09168        1.02368        1.01242      -0.00352897  -0.000185228
  7805.61       0.879963        1.08225        1.01197        1.01426      -0.00329883   6.65299e-05
  7812.81       0.860366        1.06985        1.00367        1.01316      -2.19992e-05   2.90518e-05
  7819.99       0.842295        1.0551       0.99688        1.00969      -0.00348067  -1.65851e-06
  7827.22       0.824026        1.03847       0.989962        1.0044      -0.00429992   7.66669e-05
  7834.44       0.809781        1.02065       0.987044       0.99791       0.000718106  -8.9868e-05
  7841.69       0.79074        1.0021       0.97939       0.990752      -0.00180378   0.00071721
  7845.32       0.80011       0.992768       0.99446       0.987117       0.00258133   0.00120802