File: Dynamic XAS/Dynamic XAS Energy analyzed data/ESweep_0_5 Hz/Same Eo/Normalized Spectra/Ir0_5Hz_ReaddMean_VPhsCorrect_32_-202_mV_.csv.nor
# XDI/1.0 Athena/0.9.26
# Element.edge:                  K
# Element.symbol:                Co
# Column.1:                      energy eV
# Column.2:                      norm
# Column.3:                      nbkg
# Column.4:                      flat
# Column.5:                      fbkg
# Column.6:                      nder
# Column.7:                      nsec
# Athena.e0:                     7721.54
# Athena.eshift:                 0
# Athena.rbkg:                   1.0
# Athena.importance:             1
# Athena.standard:               None
# Athena.bkg_kweight:            3
# Athena.edge_step:              1.19285
# Athena.fixed_step:             no
# Athena.pre_edge_range:         -82.964 -19.904
# Athena.pre_edge_line:          0.045501 + 0.000208697 * E
# Athena.normalization_range:    45 125.256
# Athena.post_edge_polynomial:   15.5616 - 0.00164628 * E + 0 * E^2 + 0 * E^3
# Athena.spline_range_energy:    0.000 125.180
# Athena.clamps:                 0 24
# Athena.spline_range_k:         0.000 5.732
# Athena.kweight:                2
# Athena.window:                 hanning
# Athena.phase_correction:       no
# Athena.k_range:                .4 5.35
# Athena.dk:                     .5
# Athena.r_range:                .4 5.1
# Athena.dr:                     .5
# Athena.window:                 hanning
# Athena.plot_multiplier:        1
# Athena.y_offset:               0.2
# ///
#------------------------
#   e         norm        nbkg        flat        fbkg        nder        nsec
  7600.07      -0.212084      -0.0120844  -0.212084      -0.212084       0.0121065  -0.000504789
  7624.56      -0.0463211   0.153679      -0.0463211  -0.0463211   0.00288318  -0.000208517
  7649.7      -0.015373   0.184627      -0.015373  -0.015373  -0.00037489   0.000101858
  7674.73       0.0791861   0.279186       0.0791861   0.0791861   0.000230915  -0.000288722
  7700.01      -0.00875126   0.191249      -0.00875126  -0.00875126   0.000408355   0.00102039
  7700.72      -0.00177164   0.198228      -0.00177164  -0.00177164   0.00429358  -0.0242949
  7701.43      -0.00659722   0.193403      -0.00659722  -0.00659722   8.89385e-05   0.018352
  7702.15      -0.00184379   0.198156      -0.00184379  -0.00184379  -0.00309219  -0.016935
  7702.88      -0.00586167   0.194138      -0.00586167  -0.00586167  -0.00288337   0.00522359
  7703.6      -0.00712486   0.192875      -0.00712487  -0.00712487   0.00394187   0.0149626
  7704.32      -0.000595424   0.199405      -0.000595425  -0.000595424   0.00375666  -0.0175106
  7705.02      -0.00317152   0.196828      -0.00317152  -0.00317152  -0.00400279   0.00707676
  7705.75      -0.00229332   0.197707      -0.00229332  -0.00229332   0.0165181   0.031982
  7706.47       0.015456   0.215456       0.015456   0.015456   0.0299182   0.0132043
  7707.2       0.0401621   0.240162       0.0401621   0.0401621   0.0256051  -0.0235868
  7707.91       0.0523516   0.252352       0.0523516   0.0523516   0.00406688  -0.0213651
  7708.65       0.0534528   0.253453       0.0534528   0.0534528   9.25377e-07  -0.0126292
  7709.29       0.0487134   0.248713       0.0487134   0.0487134   0.003097   0.021608
  7709.9       0.052335   0.252335       0.052335   0.052335  -0.00642928  -0.0298294
  7710.51       0.044736   0.244736       0.044736   0.044736  -0.00657625   0.0185937
  7711.11       0.0441077   0.244108       0.0441077   0.0441077   0.00845447   0.0137728
  7711.73       0.0484944   0.248494       0.0484944   0.0484944  -0.00469618  -0.0106332
  7712.33       0.0488539   0.248854       0.0488539   0.0488539  -0.00601647   0.00437183
  7712.95       0.0508876   0.250888       0.0508876   0.0508876   0.0187158   0.0371716
  7713.54       0.065658   0.265658       0.065658   0.065658   0.0475278   0.0633094
  7714.16       0.105763       0.305763       0.105763       0.105763       0.0739573   0.00124344
  7714.78       0.14589       0.34589       0.14589       0.14589       0.0465208  -0.0397691
  7715.39       0.170859       0.370859       0.170859       0.170859       0.0497807   0.00409258
  7715.97       0.196308       0.396308       0.196308       0.196308       0.0258825  -0.0457785
  7716.26       0.202548       0.402548       0.202548       0.202548       0.0287722   0.12167
  7716.5       0.214756       0.414756       0.214756       0.214756       0.0770821   0.0492918
  7716.73       0.229382       0.429382       0.229382       0.229382       0.0555916  -0.0366603
  7716.99       0.243012       0.443012       0.243012       0.243012       0.0542787  -0.00162891
  7717.23       0.256014       0.456014       0.256014       0.256014       0.0300854   0.0547786
  7717.46       0.27129       0.47129       0.27129       0.27129       0.0772021  -0.0916048
  7717.71       0.282336       0.482336       0.282336       0.282336       0.0854964   0.28721
  7717.96       0.311421       0.511421       0.311421       0.311421       0.0787536  -0.134828
  7718.21       0.332346       0.532346       0.332346       0.332346       0.109443       0.0457128
  7718.44       0.355065       0.555065       0.355065       0.355065       0.0674288  -0.0758196
  7718.69       0.374745       0.574745       0.374745       0.374745       0.105597       0.203834
  7718.94       0.405214       0.605214       0.405214       0.405214       0.119658       0.0329334
  7719.17       0.436221       0.636222       0.436222       0.436222       0.131258      -0.0722371
  7719.42       0.465479       0.665479       0.465479       0.465479       0.185764       0.195315
  7719.67       0.505378       0.705378       0.505378       0.505378       0.11841      -0.0219408
  7719.9       0.542189       0.742189       0.542189       0.542189       0.169593       0.0976024
  7720.15       0.587894       0.787894       0.587894       0.587894       0.217638       0.0858692
  7720.4       0.636655       0.836655       0.636655       0.636655       0.162237      -0.107017
  7720.65       0.679984       0.879984       0.679984       0.679984       0.170669       0.14053
  7720.88       0.728715       0.928715       0.728715       0.728715       0.244475      -0.0566744
  7721.13       0.778282       0.978282       0.778282       0.778282       0.181163       0.00813616
  7721.38       0.826755        1.02675       0.826755       0.826755       0.219102       0.236168
  7721.61       0.886642        2.2466       0.886754        2.04671       0.257518      -0.130219
  7721.86       0.942956        2.21422       0.943457        2.01472       0.237432      -0.117139
  7722.1       0.990948        2.18341       0.991825        1.98429       0.156972       0.0192497
  7722.36        1.04255        2.15165        1.04382        1.95292       0.212146      -0.0783989
  7722.59        1.08563        2.12277        1.08727        1.9244       0.147778      -0.357066
  7722.85        1.10988        2.09222        1.11192        1.89425       0.111427       0.345916
  7723.05        1.14613        2.06788        1.14848        1.87022       0.158477      -0.24581
  7723.41        1.18664        2.02658        1.18954        1.82948       0.110216       0.0286265
  7723.8        1.236        1.98202        1.23951        1.78553       0.0961176  -0.172181
  7724.2        1.25865        1.93833        1.26278        1.74246       0.020075  -0.135364
  7724.59        1.25996        1.89638        1.2647        1.70112       0.0129311  -0.0103093
  7725.01        1.25965        1.85347        1.26504        1.65886      -0.0310743  -0.0425627
  7726.51        1.19896        1.71027        1.20668        1.51799      -0.0459418   0.0018792
  7728.07        1.14046        1.57945        1.15061        1.3896      -0.0343003   0.00563443
  7729.59        1.09631        1.46812        1.10883        1.28064      -0.0102981   0.0167787
  7731.15        1.09109        1.37074        1.10603        1.18568      -0.0021348   0.00293552
  7732.68        1.09295        1.28934        1.11027        1.10666      -0.00760047  -0.00578536
  7734.21        1.08121        1.22119        1.10092        1.0409      -0.00109118  -0.00366847
  7735.77        1.06049        1.16452        1.08262       0.986655      -0.0155736   0.00824553
  7737.31        1.05989        1.12009        1.08441       0.944611      -0.0048908  -0.0130705
  7738.84        1.02841        1.08569        1.05532       0.912596      -0.0172843   0.0059619
  7740.39        1.01091        1.0601        1.04022       0.889412      -0.0156382  -0.00564027
  7741.95       0.979556        1.04224        1.0113       0.873987      -0.0240246  -0.000562249
  7746.97       0.869685        1.02588       0.909229       0.865429      -0.0158811   0.00186048
  7751.94       0.807137        1.04166       0.854403       0.888925      -0.0106913   0.00101644
  7756.95       0.769476        1.05917       0.82454       0.914234      -0.000823487   0.00257079
  7761.95       0.795858        1.07326       0.858694       0.936096       0.00771182   0.00119714
  7766.97       0.85261        1.08422       0.92325       0.954864       0.0104002  -8.26491e-05
  7771.99       0.907335        1.09221       0.985784       0.970657       0.0110529  -0.00115753
  7777       0.932782        1.09739        1.01902       0.983632       0.00198456  -0.000696469
  7784.15       0.938853        1.10038        1.03622       0.997739      -0.00387707  -0.000546396
  7791.28       0.917116        1.0987        1.02557        1.00716       0.000658105   0.000173464
  7798.44       0.904211        1.09294        1.02379        1.01252      -0.00339449  -0.00021713
  7805.61       0.880114        1.08364        1.01086        1.01438      -0.0032114   0.000150525
  7812.81       0.863747        1.07135        1.00568        1.01328      -6.17244e-05  -9.45058e-05
  7819.99       0.842528        1.05673       0.995633        1.00983      -0.00362971   8.58006e-05
  7827.22       0.825661        1.04023       0.990007        1.00458      -0.00412127   3.89499e-05
  7834.44       0.810852        1.02258       0.986417       0.998147       0.000790444  -9.19327e-05
  7841.69       0.791136        1.00425       0.977979       0.991093      -0.00192283   0.000780666
  7845.32       0.80184       0.995041       0.994329       0.987529       0.00294896   0.00134209