File: Dynamic XAS/Dynamic XAS Energy analyzed data/ESweep_0_5 Hz/Same Eo/Normalized Spectra/Ir0_5Hz_ReaddMean_VPhsCorrect_36_-248_mV_.csv.nor
# XDI/1.0 Athena/0.9.26
# Element.edge:                  K
# Element.symbol:                Co
# Column.1:                      energy eV
# Column.2:                      norm
# Column.3:                      nbkg
# Column.4:                      flat
# Column.5:                      fbkg
# Column.6:                      nder
# Column.7:                      nsec
# Athena.e0:                     7721.54
# Athena.eshift:                 0
# Athena.rbkg:                   1.0
# Athena.importance:             1
# Athena.standard:               None
# Athena.bkg_kweight:            3
# Athena.edge_step:              1.19326
# Athena.fixed_step:             no
# Athena.pre_edge_range:         -82.964 -19.904
# Athena.pre_edge_line:          -0.003407 + 0.00021509 * E
# Athena.normalization_range:    45 125.256
# Athena.post_edge_polynomial:   15.6175 - 0.00165341 * E + 0 * E^2 + 0 * E^3
# Athena.spline_range_energy:    0.000 125.180
# Athena.clamps:                 0 24
# Athena.spline_range_k:         0.000 5.732
# Athena.kweight:                2
# Athena.window:                 hanning
# Athena.phase_correction:       no
# Athena.k_range:                .4 5.35
# Athena.dk:                     .5
# Athena.r_range:                .4 5.1
# Athena.dr:                     .5
# Athena.window:                 hanning
# Athena.plot_multiplier:        1
# Athena.y_offset:               0.2
# ///
#------------------------
#   e         norm        nbkg        flat        fbkg        nder        nsec
  7600.07      -0.211974      -0.0119744  -0.211974      -0.211974       0.0121798  -0.000510462
  7624.56      -0.0458857   0.154114      -0.0458857  -0.0458857   0.00283896  -0.000211056
  7649.7      -0.0162987   0.183701      -0.0162987  -0.0162987  -0.000301152   0.000105691
  7674.73       0.079304   0.279304       0.079304   0.079304   0.000177949  -0.000289918
  7700.01      -0.00833893   0.191661      -0.00833893  -0.00833893   0.000370395   0.000892715
  7700.72      -0.00253302   0.197467      -0.00253302  -0.00253302   0.00395073  -0.0211057
  7701.43      -0.00698483   0.193015      -0.00698483  -0.00698483   0.00194081   0.0180905
  7702.15      -0.00199157   0.198008      -0.00199157  -0.00199157  -0.00395344  -0.0176368
  7702.88      -0.00613295   0.193867      -0.00613295  -0.00613295  -0.00282789   0.00563803
  7703.6      -0.0073019   0.192698      -0.0073019  -0.0073019   0.0027848   0.0144542
  7704.32      -0.00094275   0.199057      -0.00094275  -0.00094275   0.00629292  -0.0142673
  7705.02      -0.00204558   0.197954      -0.00204558  -0.00204558  -0.00563275   0.00106941
  7705.75      -0.00266132   0.197339      -0.00266132  -0.00266132   0.0169349   0.036307
  7706.47       0.015891   0.215891       0.015891   0.015891   0.0296166   0.0112303
  7707.2       0.0403745   0.240375       0.0403745   0.0403745   0.0269385  -0.0233468
  7707.91       0.0524685   0.252469       0.0524685   0.0524685   0.00444797  -0.0211284
  7708.65       0.0535977   0.253598       0.0535977   0.0535977  -0.00315411  -0.0132131
  7709.29       0.048619   0.248619       0.048619   0.048619   0.00358607   0.0228532
  7709.9       0.0524815   0.252481       0.0524815   0.0524815  -0.00459761  -0.0315153
  7710.51       0.044489   0.244489       0.044489   0.044489  -0.00841776   0.0195014
  7711.11       0.0438083   0.243808       0.0438083   0.0438083   0.0117479   0.017713
  7711.73       0.049582   0.249582       0.049582   0.049582  -0.00224262  -0.0162177
  7712.33       0.0492271   0.249227       0.0492271   0.0492271  -0.00778012   0.0111867
  7712.95       0.0531307   0.253131       0.0531307   0.0531307   0.0203229   0.0330469
  7713.54       0.0682393   0.268239       0.0682393   0.0682393   0.0467785   0.0659618
  7714.16       0.109726       0.309726       0.109726       0.109726       0.0750752   0.00037425
  7714.78       0.150888       0.350888       0.150888       0.150888       0.0496943  -0.0472217
  7715.39       0.174127       0.374127       0.174127       0.174127       0.0468797   0.0137417
  7715.97       0.201263       0.401263       0.201263       0.201263       0.0312029  -0.0593139
  7716.26       0.206529       0.406529       0.206529       0.206529       0.0295818   0.160059
  7716.5       0.220052       0.420052       0.220052       0.220052       0.0682785   0.0368947
  7716.73       0.235204       0.435204       0.235204       0.235204       0.0555792  -0.0398257
  7716.99       0.249209       0.449209       0.249209       0.249209       0.0448051  -0.0643017
  7717.23       0.258977       0.458977       0.258977       0.258977       0.0533878   0.200495
  7717.46       0.279541       0.479541       0.279541       0.279541       0.0709841  -0.20611
  7717.71       0.28944       0.48944       0.28944       0.28944       0.0936584   0.254259
  7717.96       0.31531       0.51531       0.31531       0.31531       0.0685502   0.0294747
  7718.21       0.342449       0.542449       0.342449       0.342449       0.124602      -0.1359
  7718.44       0.360262       0.560262       0.360262       0.360262       0.0708838   0.0775421
  7718.69       0.384151       0.584151       0.384151       0.384151       0.0925881   0.0509538
  7718.94       0.41006       0.61006       0.41006       0.41006       0.131352       0.217045
  7719.17       0.447435       0.647435       0.447435       0.447435       0.130172      -0.233108
  7719.42       0.473757       0.673757       0.473757       0.473757       0.169532       0.218176
  7719.67       0.512119       0.712119       0.512119       0.512119       0.12414       0.0723007
  7719.9       0.553064       0.753064       0.553064       0.553064       0.183171      -0.0200602
  7720.15       0.595897       0.795897       0.595897       0.595897       0.219007       0.117163
  7720.4       0.64367       0.84367       0.64367       0.64367       0.150749      -0.127997
  7720.65       0.684687       0.884687       0.684687       0.684687       0.181354       0.294988
  7720.88       0.740252       0.940252       0.740252       0.740252       0.219666      -0.219542
  7721.13       0.78705       0.98705       0.78705       0.78705       0.2004       0.0479085
  7721.38       0.835121        1.03512       0.835121       0.835121       0.217433       0.264869
  7721.61       0.896327        2.24003       0.89644        2.04014       0.237625      -0.196279
  7721.86       0.950026        2.20777       0.95053        2.00827       0.246729      -0.0748425
  7722.1       0.997841        2.17707       0.998724        1.97795       0.146875      -0.0173362
  7722.36        1.04692        2.14542        1.0482        1.9467       0.205904      -0.0497788
  7722.59        1.08936        2.11664        1.09101        1.91829       0.140712      -0.363488
  7722.85        1.11253        2.0862        1.11457        1.88825       0.10977       0.292694
  7723.05        1.14534        2.06195        1.1477        1.86431       0.152765      -0.185306
  7723.41        1.18538        2.02081        1.1883        1.82373       0.102913       0.00509151
  7723.8        1.23061        1.9764        1.23415        1.77994       0.0956747  -0.146517
  7724.2        1.25314        1.93288        1.2573        1.73704       0.0245577  -0.120534
  7724.59        1.25664        1.89108        1.26142        1.69586       0.00677123  -0.0401109
  7725.01        1.25378        1.84833        1.25921        1.65376      -0.0313255  -0.0340918
  7726.51        1.19575        1.70568        1.20352        1.51345      -0.0417681   0.00137094
  7728.07        1.13876        1.57538        1.14898        1.3856      -0.0359075   0.0051834
  7729.59        1.09504        1.4645        1.10765        1.27711      -0.0099303   0.015707
  7731.15        1.08772        1.36755        1.10276        1.18259      -0.00327596   0.00416638
  7732.68        1.09044        1.28652        1.10788        1.10396      -0.00866762  -0.00691434
  7734.21        1.07691        1.2187        1.09676        1.03855       7.19819e-05  -0.00200811
  7735.77        1.05835        1.16233        1.08064       0.984616      -0.015286   0.0076923
  7737.31        1.05855        1.11816        1.08324       0.942848      -0.00478091  -0.013537
  7738.84        1.02677        1.08398        1.05387       0.911077      -0.0172613   0.00602796
  7740.39        1.00912        1.0586        1.03863       0.888109      -0.015322  -0.00603368
  7741.95       0.976661        1.04091        1.00862       0.872875      -0.0242228  -0.000321118
  7746.97       0.867237        1.02496       0.907056       0.86478      -0.0161372   0.00190868
  7751.94       0.806327        1.04098       0.853922       0.888577      -0.0099803   0.00102622
  7756.95       0.770566        1.05866       0.826012       0.914108      -0.000771466   0.002493
  7761.95       0.796908        1.07286       0.86018       0.936129       0.0076697   0.00113174
  7766.97       0.851967        1.08387       0.923096       0.955001       0.0106529  -3.97713e-05
  7771.99       0.906071        1.09186       0.985065       0.970849       0.0108811  -0.00119424
  7777       0.929976        1.097        1.01681       0.983839       0.00174173  -0.000594228
  7784.15       0.938286        1.09987        1.03632       0.997911      -0.00397241  -0.000611326
  7791.28       0.91548        1.09804        1.02469        1.00725       0.000852081   0.000225801
  7798.44       0.904186        1.0921        1.0246        1.01251      -0.0035756  -0.000259919
  7805.61       0.87951        1.08261        1.01116        1.01426      -0.00325795   0.000135152
  7812.81       0.861766        1.07016        1.00468        1.01308      -1.73741e-05  -3.63255e-05
  7819.99       0.842173        1.05541       0.996339        1.00958      -0.00358882   4.73471e-05
  7827.22       0.824933        1.03885       0.990418        1.00434      -0.00438464   4.21333e-05
  7834.44       0.809917        1.02123       0.986701       0.998012       0.000917904  -7.39235e-05
  7841.69       0.790941        1.00303       0.97908       0.991171      -0.00174328   0.000750667
  7845.32       0.801225       0.99394       0.995048       0.987763       0.00283307   0.0012607