File: Dynamic XAS/Dynamic XAS Energy analyzed data/ESweep_0_5 Hz/Same Eo/Normalized Spectra/Ir0_5Hz_ReaddMean_VPhsCorrect_33_-219_mV_.csv.nor
# XDI/1.0 Athena/0.9.26
# Element.edge:                  K
# Element.symbol:                Co
# Column.1:                      energy eV
# Column.2:                      norm
# Column.3:                      nbkg
# Column.4:                      flat
# Column.5:                      fbkg
# Column.6:                      nder
# Column.7:                      nsec
# Athena.e0:                     7721.54
# Athena.eshift:                 0
# Athena.rbkg:                   1.0
# Athena.importance:             1
# Athena.standard:               None
# Athena.bkg_kweight:            3
# Athena.edge_step:              1.19275
# Athena.fixed_step:             no
# Athena.pre_edge_range:         -82.964 -19.904
# Athena.pre_edge_line:          -0.005327 + 0.000215331 * E
# Athena.normalization_range:    45 125.256
# Athena.post_edge_polynomial:   15.5616 - 0.00164624 * E + 0 * E^2 + 0 * E^3
# Athena.spline_range_energy:    0.000 125.180
# Athena.clamps:                 0 24
# Athena.spline_range_k:         0.000 5.732
# Athena.kweight:                2
# Athena.window:                 hanning
# Athena.phase_correction:       no
# Athena.k_range:                .4 5.35
# Athena.dk:                     .5
# Athena.r_range:                .4 5.1
# Athena.dr:                     .5
# Athena.window:                 hanning
# Athena.plot_multiplier:        1
# Athena.y_offset:               0.2
# ///
#------------------------
#   e         norm        nbkg        flat        fbkg        nder        nsec
  7600.07      -0.211907      -0.011907  -0.211907      -0.211907       0.0121047  -0.000502328
  7624.56      -0.045552   0.154448      -0.045552  -0.045552   0.00286897  -0.000210781
  7649.7      -0.0155084   0.184492      -0.0155084  -0.0155084  -0.000368187   0.000104632
  7674.73       0.0798865   0.279886       0.0798865   0.0798865   0.000247002  -0.000290524
  7700.01      -0.00835104   0.191649      -0.00835104  -0.00835104   0.000340325   0.000935011
  7700.72      -0.00217025   0.19783      -0.00217025  -0.00217025   0.00482961  -0.022545
  7701.43      -0.00694687   0.193053      -0.00694687  -0.00694687   0.000886278   0.0179093
  7702.15      -0.0023761   0.197624      -0.0023761  -0.0023761  -0.00345818  -0.0173368
  7702.88      -0.006786   0.193214      -0.006786  -0.006786  -0.00296922   0.00740756
  7703.6      -0.00729482   0.192705      -0.00729482  -0.00729482   0.00309651   0.0127684
  7704.32      -0.00115061   0.198849      -0.00115061  -0.00115061   0.00515361  -0.0149632
  7705.02      -0.00281064   0.197189      -0.00281064  -0.00281064  -0.00494288   0.00415081
  7705.75      -0.00245188   0.197548      -0.00245188  -0.00245188   0.0164884   0.0345029
  7706.47       0.0161135   0.216113       0.0161135   0.0161135   0.0296716   0.0103659
  7707.2       0.0401594   0.240159       0.0401594   0.0401594   0.0254353  -0.0234543
  7707.91       0.0517633   0.251763       0.0517633   0.0517633   0.00479234  -0.0201356
  7708.65       0.052919   0.252919       0.052919   0.052919  -0.00107207  -0.0124593
  7709.29       0.0483044   0.248304       0.0483044   0.0483044   0.00355258   0.0230194
  7709.9       0.0525761   0.252576       0.0525761   0.0525761  -0.00563693  -0.0314975
  7710.51       0.0449982   0.244998       0.0449982   0.0449982  -0.00768828   0.0186731
  7711.11       0.0444193   0.244419       0.0444193   0.0444193   0.00934692   0.0135224
  7711.73       0.0487655   0.248766       0.0487655   0.0487655  -0.00420816  -0.0118659
  7712.33       0.0486259   0.248626       0.0486259   0.0486259  -0.00668656   0.00903509
  7712.95       0.0519286   0.251929       0.0519286   0.0519286   0.0207869   0.0314377
  7713.54       0.065914   0.265914       0.065914   0.065914   0.0469515   0.0665428
  7714.16       0.106428       0.306428       0.106428       0.106428       0.073435   0.00108854
  7714.78       0.1469       0.3469       0.1469       0.1469       0.0483448  -0.0427053
  7715.39       0.171126       0.371126       0.171126       0.171126       0.0482667   0.0085497
  7715.97       0.197408       0.397408       0.197408       0.197408       0.0279737  -0.0508514
  7716.26       0.20338       0.40338       0.20338       0.20338       0.0304961   0.136703
  7716.5       0.2162       0.4162       0.2162       0.2162       0.0751931   0.0263122
  7716.73       0.230053       0.430053       0.230053       0.230053       0.0547861  -0.0146453
  7716.99       0.244227       0.444227       0.244227       0.244227       0.0542727  -0.0135848
  7717.23       0.257066       0.457066       0.257066       0.257066       0.0312635   0.0692283
  7717.46       0.273014       0.473014       0.273014       0.273014       0.0772452  -0.099608
  7717.71       0.284307       0.484307       0.284307       0.284307       0.0887652   0.270944
  7717.96       0.312625       0.512625       0.312625       0.312625       0.0744734  -0.10532
  7718.21       0.33448       0.53448       0.33448       0.33448       0.117572       0.0263323
  7718.44       0.356929       0.556929       0.356929       0.356929       0.0623719  -0.0744615
  7718.69       0.376404       0.576404       0.376404       0.376404       0.100629       0.187986
  7718.94       0.405782       0.605782       0.405782       0.405782       0.126274       0.0869418
  7719.17       0.438893       0.638893       0.438893       0.438893       0.129489      -0.123663
  7719.42       0.467286       0.667286       0.467286       0.467286       0.186561       0.20117
  7719.67       0.506681       0.706681       0.506681       0.506681       0.11631       0.025932
  7719.9       0.545857       0.745857       0.545857       0.545857       0.174186       0.023224
  7720.15       0.589479       0.789479       0.589479       0.589479       0.216087       0.119003
  7720.4       0.638115       0.838115       0.638115       0.638115       0.157547      -0.115249
  7720.65       0.680806       0.880806       0.680806       0.680806       0.176222       0.186109
  7720.88       0.731595       0.931595       0.731595       0.731595       0.236415      -0.107593
  7721.13       0.780211       0.980211       0.780211       0.780211       0.186927       0.041003
  7721.38       0.829646        1.02965       0.829646       0.829646       0.220162       0.218167
  7721.61       0.88938        2.2515       0.889492        2.05161       0.248583      -0.141211
  7721.86       0.944858        2.21893       0.945361        2.01943       0.239253      -0.101448
  7722.1       0.992915        2.18794       0.993795        1.98882       0.157777       0.0110834
  7722.36        1.04406        2.15598        1.04534        1.95726       0.215845      -0.0968913
  7722.59        1.08563        2.12693        1.08727        1.92857       0.141515      -0.313317
  7722.85        1.11095        2.0962        1.11299        1.89824       0.111328       0.29015
  7723.05        1.14539        2.07172        1.14775        1.87408       0.156368      -0.214209
  7723.41        1.18564        2.03018        1.18855        1.83309       0.108815       0.0271829
  7723.8        1.23448        1.98536        1.23801        1.78888       0.0948894  -0.168669
  7724.2        1.25717        1.94141        1.26132        1.74556       0.0189997  -0.135261
  7724.59        1.25853        1.89922        1.26329        1.70399       0.0110722  -0.0143145
  7725.01        1.25762        1.85606        1.26303        1.66148      -0.0292878  -0.0399619
  7726.51        1.19841        1.71205        1.20616        1.5198      -0.0451287   0.00112282
  7728.07        1.13958        1.58051        1.14977        1.3907      -0.0359086   0.00603401
  7729.59        1.09605        1.46859        1.10862        1.28116      -0.00891038   0.0164954
  7731.15        1.09078        1.37071        1.10578        1.1857      -0.00285156   0.00307085
  7732.68        1.09292        1.28891        1.1103        1.1063      -0.00746009  -0.00632713
  7734.21        1.08019        1.22046        1.09997        1.04024      -0.00127149  -0.00295985
  7735.77        1.06015        1.16355        1.08236       0.985772      -0.0151772   0.00851705
  7737.31        1.06088        1.11897        1.08549       0.943582      -0.00524732  -0.0141901
  7738.84        1.02808        1.08448        1.05509       0.911484      -0.0171663   0.00667684
  7740.39        1.01095        1.05886        1.04037       0.888273      -0.0155572  -0.00655723
  7741.95       0.977755        1.04101        1.00961       0.872868      -0.0241001  -0.000128713
  7746.97       0.869141        1.02492       0.90883       0.864608      -0.0158576   0.00180773
  7751.94       0.806527        1.04109       0.853966       0.88853      -0.0105925   0.00106013
  7756.95       0.769895        1.05892       0.825159       0.914182      -0.000884688   0.00251634
  7761.95       0.795949        1.07321       0.859014       0.936273       0.00789774   0.00117795
  7766.97       0.851886        1.08428       0.922783       0.955174       0.010242  -2.75944e-05
  7771.99       0.907176        1.09228       0.985911       0.971019       0.0111115  -0.00120598
  7777       0.931967        1.09743        1.01852       0.98398       0.00199166  -0.00065216
  7784.15       0.939027        1.10027        1.03674       0.997983      -0.00397639  -0.00057827
  7791.28       0.916654        1.09839        1.0255        1.00724       0.000720941   0.000197728
  7798.44       0.904356        1.09241        1.02437        1.01243      -0.00347639  -0.000230069
  7805.61       0.880204        1.08292        1.01142        1.01414      -0.00314588   0.00010834
  7812.81       0.861599        1.07053        1.00405        1.01298      -1.68636e-05  -5.00429e-07
  7819.99       0.842994        1.05592       0.996656        1.00958      -0.00358064   9.17099e-06
  7827.22       0.824754        1.0396       0.989698        1.00455      -0.0044512   8.87403e-05
  7834.44       0.811164        1.02235       0.98737       0.998552       0.000849024  -0.000146638
  7841.69       0.7898        1.00468       0.977324       0.9922      -0.0016464   0.000875525
  7845.32       0.802179       0.995912       0.995369       0.989101       0.0034103   0.00139303