File: Dynamic XAS/Dynamic XAS Energy analyzed data/ESweep_0_5 Hz/Same Eo/Normalized Spectra/Ir0_5Hz_ReaddMean_VPhsCorrect_17_202_mV_.csv.nor
# XDI/1.0 Athena/0.9.26
# Element.edge:                  K
# Element.symbol:                Co
# Column.1:                      energy eV
# Column.2:                      norm
# Column.3:                      nbkg
# Column.4:                      flat
# Column.5:                      fbkg
# Column.6:                      nder
# Column.7:                      nsec
# Athena.e0:                     7721.54
# Athena.eshift:                 0
# Athena.rbkg:                   1.0
# Athena.importance:             1
# Athena.standard:               None
# Athena.bkg_kweight:            3
# Athena.edge_step:              1.19536
# Athena.fixed_step:             no
# Athena.pre_edge_range:         -82.964 -19.904
# Athena.pre_edge_line:          0.292261 + 0.000176551 * E
# Athena.normalization_range:    45 125.256
# Athena.post_edge_polynomial:   15.6792 - 0.00166137 * E + 0 * E^2 + 0 * E^3
# Athena.spline_range_energy:    0.000 125.180
# Athena.clamps:                 0 24
# Athena.spline_range_k:         0.000 5.732
# Athena.kweight:                2
# Athena.window:                 hanning
# Athena.phase_correction:       no
# Athena.k_range:                .4 5.35
# Athena.dk:                     .5
# Athena.r_range:                .4 5.1
# Athena.dr:                     .5
# Athena.window:                 hanning
# Athena.plot_multiplier:        1
# Athena.y_offset:               0.2
# ///
#------------------------
#   e         norm        nbkg        flat        fbkg        nder        nsec
  7600.07      -0.214901      -0.0149008  -0.214901      -0.214901       0.0121332  -0.000504481
  7624.56      -0.0484046   0.151595      -0.0484046  -0.0484046   0.00297947  -0.000206072
  7649.7      -0.0150709   0.184929      -0.0150709  -0.0150709  -0.000306608   9.19224e-05
  7674.73       0.0756457   0.275646       0.0756457   0.0756457   0.000190024  -0.000277044
  7700.01      -0.00875233   0.191248      -0.00875233  -0.00875233   0.000343959   0.00101579
  7700.72      -0.00171608   0.198284      -0.00171608  -0.00171608   0.00452359  -0.024048
  7701.43      -0.00636398   0.193636      -0.00636398  -0.00636398   0.000911742   0.0168219
  7702.15      -0.00223342   0.197767      -0.00223342  -0.00223342  -0.00234657  -0.0161403
  7702.88      -0.00646423   0.193536      -0.00646423  -0.00646423  -0.00301465   0.00607188
  7703.6      -0.00749482   0.192505      -0.00749482  -0.00749482   0.00287757   0.0137292
  7704.32      -0.00137444   0.198626      -0.00137444  -0.00137444   0.00407617  -0.0144689
  7705.02      -0.00280787   0.197192      -0.00280787  -0.00280787  -0.00508701   0.00468473
  7705.75      -0.00194131   0.198059      -0.00194131  -0.00194131   0.0166133   0.030897
  7706.47       0.0152238   0.215224       0.0152238   0.0152238   0.0282463   0.0106178
  7707.2       0.037995   0.237995       0.037995   0.037995   0.0257939  -0.0173675
  7707.91       0.0515121   0.251512       0.0515121   0.0515121   0.00783282  -0.0213385
  7708.65       0.053977   0.253977       0.053977   0.053977  -0.000314915  -0.0135181
  7709.29       0.0500373   0.250037       0.0500373   0.0500373   0.00166921   0.021167
  7709.9       0.054254   0.254254       0.054254   0.054254  -0.00570563  -0.0365445
  7710.51       0.0447249   0.244725       0.0447249   0.0447249  -0.0098308   0.0230501
  7711.11       0.0438402   0.24384       0.0438402   0.0438402   0.00742593   0.00659631
  7711.73       0.0453348   0.245335       0.0453348   0.0453348  -0.00623128  -0.0113568
  7712.33       0.0425748   0.242575       0.0425748   0.0425748  -0.00889242   0.0147286
  7712.95       0.0453764   0.245376       0.0453764   0.0453764   0.014999   0.0285114
  7713.54       0.0578773   0.257877       0.0578773   0.0578773   0.0418462   0.0618128
  7714.16       0.0949889   0.294989       0.0949889   0.0949889   0.0725631   0.0139118
  7714.78       0.136971       0.336971       0.136971       0.136971       0.0503798  -0.0569544
  7715.39       0.157422       0.357422       0.157422       0.157422       0.0436314   0.0276147
  7715.97       0.186697       0.386697       0.186697       0.186697       0.0259428  -0.0875109
  7716.26       0.189269       0.389269       0.189269       0.189269       0.0385716   0.201477
  7716.5       0.202794       0.402794       0.202794       0.202794       0.0590316   0.0462881
  7716.73       0.218505       0.418505       0.218505       0.218505       0.0420245  -0.14552
  7716.99       0.22646       0.42646       0.22646       0.22646       0.0389144   0.0286954
  7717.23       0.235748       0.435748       0.235748       0.235748       0.0551848   0.205318
  7717.46       0.256137       0.456137       0.256137       0.256137       0.0494797  -0.204955
  7717.71       0.265918       0.465918       0.265918       0.265918       0.0884877   0.173287
  7717.96       0.286607       0.486607       0.286607       0.286607       0.0728943   0.104304
  7718.21       0.312918       0.512918       0.312918       0.312918       0.101624      -0.178078
  7718.44       0.327424       0.527424       0.327424       0.327424       0.0961337   0.179414
  7718.69       0.354055       0.554055       0.354055       0.354055       0.0658665  -0.0795466
  7718.94       0.375251       0.575251       0.375251       0.375251       0.147511       0.287215
  7719.17       0.412213       0.612213       0.412213       0.412213       0.120795      -0.218053
  7719.42       0.439008       0.639008       0.439008       0.439008       0.146266       0.161378
  7719.67       0.474535       0.674535       0.474535       0.474535       0.129356       0.041103
  7719.9       0.510916       0.710916       0.510916       0.510916       0.190691       0.126783
  7720.15       0.557975       0.757975       0.557975       0.557975       0.207458       0.018604
  7720.4       0.604227       0.804227       0.604227       0.604227       0.147554      -0.0803865
  7720.65       0.646637       0.846637       0.646637       0.646637       0.190454       0.221995
  7720.88       0.699253       0.899253       0.699253       0.699253       0.21212      -0.0553945
  7721.13       0.753136       0.953136       0.753136       0.753136       0.197852      -0.0240482
  7721.38       0.803944        1.00394       0.803944       0.803944       0.247658       0.250634
  7721.61       0.866899        2.27505       0.86701        2.07516       0.237563      -0.195687
  7721.86       0.922511        2.24187       0.923006        2.04236       0.277795      -0.0738158
  7722.1       0.972235        2.2103       0.973102        2.01117       0.146742       0.10127
  7722.36        1.03091        2.17775        1.03216        1.979       0.231055      -0.207306
  7722.59        1.07286        2.14815        1.07448        1.94977       0.175072      -0.197523
  7722.85        1.10579        2.11685        1.1078        1.91885       0.122248       0.173227
  7723.05        1.14078        2.0919        1.14311        1.89422       0.176983      -0.109904
  7723.41        1.19143        2.04958        1.19429        1.85245       0.127773      -0.0256686
  7723.8        1.24369        2.00391        1.24716        1.80739       0.10398      -0.150563
  7724.2        1.27269        1.95914        1.27678        1.76323       0.0371843  -0.151352
  7724.59        1.27779        1.91615        1.28248        1.72084       0.0166379  -0.0528263
  7725.01        1.27454        1.87217        1.27987        1.67751      -0.0348855  -0.0383036
  7726.51        1.20918        1.72541        1.21682        1.53305      -0.0492589   0.000913434
  7728.07        1.14346        1.59133        1.1535        1.40137      -0.0393097   0.0077873
  7729.59        1.09726        1.47721        1.10964        1.28959      -0.0100179   0.01814
  7731.15        1.09318        1.37739        1.10795        1.19216      -0.000679098   0.00364474
  7732.68        1.09784        1.29393        1.11497        1.11106      -0.0078074  -0.00739643
  7734.21        1.08513        1.22406        1.10462        1.04355      -0.000872944  -0.00347927
  7735.77        1.06387        1.16594        1.08576       0.987825      -0.0162909   0.00771539
  7737.31        1.06148        1.12037        1.08573       0.944611      -0.00498114  -0.0117308
  7738.84        1.03137        1.08507        1.05798       0.911674      -0.0170491   0.00592814
  7740.39        1.01517        1.05881        1.04415       0.887787      -0.0152499  -0.00789966
  7741.95       0.979665        1.04047        1.01105       0.871852      -0.0244004   0.000306759
  7746.97       0.870838        1.0236       0.909937       0.862701      -0.0163355   0.00170103
  7751.94       0.805364        1.03974       0.852097       0.886473      -0.0111658   0.00105811
  7756.95       0.765793        1.05775       0.820236       0.912195      -0.000715714   0.00264527
  7761.95       0.792124        1.07235       0.854252       0.934474       0.00730137   0.00121605
  7766.97       0.849303        1.08381       0.919146       0.953658       0.0113433  -3.68556e-05
  7771.99       0.905603        1.09229       0.983167       0.969855       0.01124  -0.00112645
  7777       0.933404        1.09794        1.01867       0.983212       0.00215472  -0.000739262
  7784.15       0.940977        1.10155        1.03724       0.997812      -0.00392396  -0.000603191
  7791.28       0.917849        1.1004        1.02508        1.00764       0.000936735   0.000261781
  7798.44       0.908078        1.09506        1.02631        1.01329      -0.00356481  -0.000285951
  7805.61       0.883593        1.08604        1.01286        1.01531      -0.00334978   0.000102713
  7812.81       0.864362        1.07388        1.00469        1.01421       0.000186813  -2.09494e-06
  7819.99       0.84505        1.05918       0.996427        1.01056      -0.00385201   2.44041e-05
  7827.22       0.826894        1.04239       0.989386        1.00488      -0.0044327   3.84908e-05
  7834.44       0.810776        1.0242       0.984361       0.997787       0.00104354  -2.92622e-05
  7841.69       0.793037        1.00506       0.977773       0.989793      -0.001924   0.000729444
  7845.32       0.803381       0.99533       0.993698       0.985647       0.00284969   0.00131507