File: Dynamic XAS/Dynamic XAS Energy analyzed data/ESweep_0_5 Hz/Same Eo/Normalized Spectra/Ir0_5Hz_ReaddMean_VPhsCorrect_27_-77_mV_.csv.nor
# XDI/1.0 Athena/0.9.26
# Element.edge:                  K
# Element.symbol:                Co
# Column.1:                      energy eV
# Column.2:                      norm
# Column.3:                      nbkg
# Column.4:                      flat
# Column.5:                      fbkg
# Column.6:                      nder
# Column.7:                      nsec
# Athena.e0:                     7721.54
# Athena.eshift:                 0
# Athena.rbkg:                   1.0
# Athena.importance:             1
# Athena.standard:               None
# Athena.bkg_kweight:            3
# Athena.edge_step:              1.19458
# Athena.fixed_step:             no
# Athena.pre_edge_range:         -82.964 -19.904
# Athena.pre_edge_line:          0.227752 + 0.000185002 * E
# Athena.normalization_range:    45 125.256
# Athena.post_edge_polynomial:   15.6754 - 0.00166088 * E + 0 * E^2 + 0 * E^3
# Athena.spline_range_energy:    0.000 125.180
# Athena.clamps:                 0 24
# Athena.spline_range_k:         0.000 5.732
# Athena.kweight:                2
# Athena.window:                 hanning
# Athena.phase_correction:       no
# Athena.k_range:                .4 5.35
# Athena.dk:                     .5
# Athena.r_range:                .4 5.1
# Athena.dr:                     .5
# Athena.window:                 hanning
# Athena.plot_multiplier:        1
# Athena.y_offset:               0.2
# ///
#------------------------
#   e         norm        nbkg        flat        fbkg        nder        nsec
  7600.07      -0.214061      -0.0140613  -0.214061      -0.214061       0.0120524  -0.000497656
  7624.56      -0.0477766   0.152223      -0.0477766  -0.0477766   0.00298909  -0.000206112
  7649.7      -0.014687   0.185313      -0.014687  -0.014687  -0.000378633   9.3785e-05
  7674.73       0.0769522   0.276952       0.0769522   0.0769522   0.000226937  -0.000280206
  7700.01      -0.00852344   0.191477      -0.00852344  -0.00852344   0.000411336   0.000934015
  7700.72      -0.0022744   0.197726      -0.0022744  -0.0022744   0.00378455  -0.0210084
  7701.43      -0.00623183   0.193768      -0.00623183  -0.00623183   0.00190989   0.0172564
  7702.15      -0.00117725   0.198823      -0.00117725  -0.00117725  -0.0036331  -0.018987
  7702.88      -0.00595792   0.194042      -0.00595792  -0.00595792  -0.00392391   0.00596429
  7703.6      -0.00759249   0.192408      -0.00759249  -0.00759249   0.00525602   0.0164393
  7704.32      -0.000666757   0.199333      -0.000666757  -0.000666757   0.00291687  -0.0166638
  7705.02      -0.00243568   0.197564      -0.00243568  -0.00243568  -0.0043373   0.00343364
  7705.75      -0.00255397   0.197446      -0.00255397  -0.00255397   0.0166168   0.0323345
  7706.47       0.0143944   0.214394       0.0143944   0.0143944   0.0285119   0.0143587
  7707.2       0.0388981   0.238898       0.0388981   0.0388981   0.0267022  -0.0238425
  7707.91       0.0507533   0.250753       0.0507533   0.0507533   0.00497755  -0.0161536
  7708.65       0.054269   0.254269       0.054269   0.054269   0.000718439  -0.0177201
  7709.29       0.0493553   0.249355       0.0493553   0.0493553   0.00133337   0.0232859
  7709.9       0.0534424   0.253442       0.0534424   0.0534424  -0.00657498  -0.0310959
  7710.51       0.0458315   0.245832       0.0458315   0.0458315  -0.00740935   0.0136024
  7711.11       0.0433773   0.243377       0.0433773   0.0433773   0.00635423   0.0132989
  7711.73       0.0456938   0.245694       0.0456938   0.0456938  -0.00464939  -0.00585954
  7712.33       0.0457926   0.245793       0.0457926   0.0457926  -0.00697756   0.00300167
  7712.95       0.047038   0.247038       0.047038   0.047038   0.0166423   0.0395074
  7713.54       0.0618721   0.261872       0.0618721   0.0618721   0.0449186   0.0570042
  7714.16       0.0996173   0.299617       0.0996173   0.0996173   0.0757894   0.0120221
  7714.78       0.141508       0.341508       0.141508       0.141508       0.0452358  -0.0424508
  7715.39       0.167229       0.367229       0.167229       0.167229       0.0505327  -0.0016993
  7715.97       0.191389       0.391389       0.191389       0.191389       0.0191096  -0.0384041
  7716.26       0.197981       0.397981       0.197981       0.197981       0.0340209   0.0507482
  7716.5       0.206513       0.406513       0.206513       0.206513       0.0775694   0.155462
  7716.73       0.223899       0.423899       0.223899       0.223899       0.0563856  -0.172516
  7716.99       0.231979       0.431979       0.231979       0.231979       0.0329046   0.104393
  7717.23       0.245727       0.445727       0.245727       0.245727       0.0362159   0.0652357
  7717.46       0.262297       0.462297       0.262297       0.262297       0.0651717  -0.124688
  7717.71       0.272758       0.472758       0.272758       0.272758       0.0810746   0.270905
  7717.96       0.300236       0.500236       0.300236       0.300236       0.107739      -0.113257
  7718.21       0.32081       0.52081       0.32081       0.32081       0.0865337  -0.00409542
  7718.44       0.340219       0.540219       0.340219       0.340219       0.0807012   0.00902727
  7718.69       0.36159       0.56159       0.36159       0.36159       0.113432       0.200284
  7718.94       0.393489       0.593489       0.393489       0.393489       0.0933728  -0.0461024
  7719.17       0.42126       0.62126       0.42126       0.42126       0.130779       0.0549699
  7719.42       0.45479       0.65479       0.45479       0.45479       0.178021       0.120072
  7719.67       0.494493       0.694493       0.494493       0.494493       0.141596      -0.116037
  7719.9       0.525522       0.725522       0.525522       0.525522       0.151461       0.295298
  7720.15       0.577306       0.777306       0.577306       0.577306       0.211505      -0.021791
  7720.4       0.625809       0.825809       0.625809       0.625809       0.184418      -0.154152
  7720.65       0.665953       0.865953       0.665953       0.665953       0.167438       0.13922
  7720.88       0.711627       0.911627       0.711627       0.711627       0.24595       0.0986609
  7721.13       0.767607       0.967607       0.767607       0.767607       0.157979      -0.145837
  7721.38       0.813464        1.01346       0.813464       0.813464       0.240384       0.313704
  7721.61       0.875464        2.26702       0.875576        2.06713       0.245321      -0.179313
  7721.86       0.93105        2.23402       0.931547        2.03452       0.257448      -0.0920788
  7722.1       0.979731        2.20263       0.980603        2.0035       0.15898       0.0798696
  7722.36        1.03594        2.17025        1.0372        1.97152       0.221059      -0.186533
  7722.59        1.07685        2.14082        1.07848        1.94245       0.157678      -0.22049
  7722.85        1.10723        2.10969        1.10925        1.91171       0.113824       0.200674
  7723.05        1.14147        2.08488        1.14381        1.88722       0.16981      -0.128193
  7723.41        1.18917        2.04281        1.19205        1.84569       0.122908      -0.012316
  7723.8        1.24021        1.99739        1.2437        1.80088       0.101656      -0.161921
  7724.2        1.26618        1.95287        1.27029        1.75698       0.0171326  -0.151111
  7724.59        1.26832        1.91013        1.27303        1.71484       0.0168134  -0.0417538
  7725.01        1.26375        1.8664        1.2691        1.67176      -0.033268  -0.0316267
  7726.51        1.20299        1.72049        1.21067        1.52817      -0.0457284   0.000949431
  7728.07        1.14215        1.58721        1.15223        1.3973      -0.0378188   0.00556486
  7729.59        1.09554        1.4738        1.10798        1.28624      -0.00916495   0.0185038
  7731.15        1.09189        1.37462        1.10674        1.18946      -0.00207339   0.0029271
  7732.68        1.09528        1.29172        1.11249        1.10893      -0.00700755  -0.00760767
  7734.21        1.0808        1.22234        1.10038        1.04193      -0.000691969  -0.00134655
  7735.77        1.06285        1.16466        1.08484       0.986655      -0.0161589   0.00646577
  7737.31        1.06071        1.11946        1.08507       0.943825      -0.00582447  -0.0127127
  7738.84        1.02853        1.08448        1.05527       0.911219      -0.0174798   0.00706089
  7740.39        1.01294        1.05849        1.04206       0.887616      -0.0151088  -0.00732896
  7741.95       0.979431        1.04038        1.01097       0.871922      -0.0243928  -3.05445e-05
  7746.97       0.871444        1.024       0.910738       0.863289      -0.0157486   0.00166441
  7751.94       0.805891        1.04034       0.852858       0.887304      -0.0111246   0.00108109
  7756.95       0.766817        1.05841       0.821532       0.913128      -0.000986626   0.00266557
  7761.95       0.794148        1.07296       0.856586       0.935401       0.00778287   0.00115638
  7766.97       0.850823        1.0843       0.921014       0.954491       0.0108982  -8.51084e-05
  7771.99       0.905408        1.09257       0.98336       0.970525       0.0113441  -0.00110956
  7777       0.931924        1.09798        1.01762       0.983669       0.00215075  -0.000699515
  7784.15       0.939388        1.10117        1.03613       0.997917      -0.00401015  -0.000577944
  7791.28       0.917435        1.09962        1.0252        1.00739       0.000572782   0.000218109
  7798.44       0.906604        1.09392        1.02543        1.01274      -0.00332772  -0.000283537
  7805.61       0.881178        1.08464        1.01109        1.01455      -0.00330183   0.00017429
  7812.81       0.864708        1.07238        1.00574        1.01341      -6.88951e-05  -7.57129e-05
  7819.99       0.844356        1.05782       0.996488        1.00995      -0.00358561   4.59265e-05
  7827.22       0.826277        1.04144       0.98958        1.00474      -0.00419822   2.38706e-05
  7834.44       0.809475        1.024       0.983927       0.998454       0.00072591  -1.70113e-05
  7841.69       0.791694        1.00601       0.977351       0.991669      -0.00167837   0.000804977
  7845.32       0.804007       0.99703       0.995274       0.988297       0.00339215   0.00139684