File: Dynamic XAS/Dynamic XAS Energy analyzed data/ESweep_0_5 Hz/Same Eo/Normalized Spectra/Ir0_5Hz_ReaddMean_VPhsCorrect_40_-232_mV_.csv.nor
# XDI/1.0 Athena/0.9.26
# Element.edge:                  K
# Element.symbol:                Co
# Column.1:                      energy eV
# Column.2:                      norm
# Column.3:                      nbkg
# Column.4:                      flat
# Column.5:                      fbkg
# Column.6:                      nder
# Column.7:                      nsec
# Athena.e0:                     7721.54
# Athena.eshift:                 0
# Athena.rbkg:                   1.0
# Athena.importance:             1
# Athena.standard:               None
# Athena.bkg_kweight:            3
# Athena.edge_step:              1.19298
# Athena.fixed_step:             no
# Athena.pre_edge_range:         -82.964 -19.904
# Athena.pre_edge_line:          0.020046 + 0.000212042 * E
# Athena.normalization_range:    45 125.256
# Athena.post_edge_polynomial:   15.5644 - 0.00164657 * E + 0 * E^2 + 0 * E^3
# Athena.spline_range_energy:    0.000 125.180
# Athena.clamps:                 0 24
# Athena.spline_range_k:         0.000 5.732
# Athena.kweight:                2
# Athena.window:                 hanning
# Athena.phase_correction:       no
# Athena.k_range:                .4 5.35
# Athena.dk:                     .5
# Athena.r_range:                .4 5.1
# Athena.dr:                     .5
# Athena.window:                 hanning
# Athena.plot_multiplier:        1
# Athena.y_offset:               0.2
# ///
#------------------------
#   e         norm        nbkg        flat        fbkg        nder        nsec
  7600.07      -0.212972      -0.0129723  -0.212972      -0.212972       0.012212  -0.000508218
  7624.56      -0.0455144   0.154486      -0.0455144  -0.0455144   0.00286325  -0.000213733
  7649.7      -0.0163092   0.183691      -0.0163092  -0.0163092  -0.000316271   0.000107316
  7674.73       0.0799306   0.279931       0.0799306   0.0799306   0.000197534  -0.000293983
  7700.01      -0.00965157   0.190348      -0.00965157  -0.00965157   0.000355729   0.0010409
  7700.72      -0.00252822   0.197472      -0.00252822  -0.00252822   0.00529547  -0.0223208
  7701.43      -0.00624486   0.193755      -0.00624486  -0.00624486   0.00013349   0.0137629
  7702.15      -0.0027786   0.197221      -0.0027786  -0.0027786  -0.00300856  -0.0138878
  7702.88      -0.00650719   0.193493      -0.00650719  -0.00650719  -0.00211276   0.00646917
  7703.6      -0.00682942   0.193171      -0.00682941  -0.00682941   0.000839195   0.0117641
  7704.32      -0.0010211   0.198979      -0.0010211  -0.0010211   0.00520091  -0.0126972
  7705.02      -0.00185977   0.19814      -0.00185977  -0.00185977  -0.00314898   0.00234028
  7705.75      -0.00155545   0.198445      -0.00155545  -0.00155545   0.0166572   0.0333189
  7706.47       0.016331   0.216331       0.016331   0.016331   0.0313251   0.01197
  7707.2       0.0405315   0.240531       0.0405315   0.0405315   0.0257978  -0.0229004
  7707.91       0.0525778   0.252578       0.0525778   0.0525778   0.00326349  -0.0221483
  7708.65       0.0531194   0.253119       0.0531194   0.0531194  -0.000556931  -0.0129337
  7709.29       0.0477494   0.247749       0.0477494   0.0477494  -0.0013415   0.0266839
  7709.9       0.0526813   0.252681       0.0526813   0.0526813  -0.00134164  -0.0360666
  7710.51       0.0440445   0.244044       0.0440445   0.0440445  -0.00807402   0.0266966
  7711.11       0.045353   0.245353       0.045353   0.045353   0.0113122   0.00806873
  7711.73       0.0496643   0.249664       0.0496643   0.0496643  -0.00191194  -0.0115903
  7712.33       0.049593   0.249593       0.049593   0.049593  -0.00534243   0.0153493
  7712.95       0.055373   0.255373       0.055373   0.055373   0.0184027   0.0277929
  7713.54       0.0704357   0.270436       0.0704357   0.0704357   0.0455945   0.059301
  7714.16       0.109308       0.309308       0.109308       0.109308       0.0783165   0.0159339
  7714.78       0.153801       0.353801       0.153801       0.153801       0.0517537  -0.0567843
  7715.39       0.176796       0.376796       0.176796       0.176796       0.048715   0.0201037
  7715.97       0.205909       0.405909       0.205909       0.205909       0.0319937  -0.0659451
  7716.26       0.211253       0.411253       0.211253       0.211253       0.0308176   0.153067
  7716.5       0.224451       0.424451       0.224451       0.224451       0.0633576   0.0556349
  7716.73       0.240402       0.440402       0.240402       0.240402       0.050038  -0.0621587
  7716.99       0.253869       0.453869       0.253869       0.253869       0.0399617  -0.113636
  7717.23       0.260293       0.460293       0.260293       0.260293       0.0677627   0.331309
  7717.46       0.28519       0.48519       0.28519       0.28519       0.0582824  -0.265233
  7717.71       0.296233       0.496233       0.296233       0.296233       0.0978272   0.162456
  7717.96       0.31752       0.51752       0.31752       0.31752       0.0810392   0.17835
  7718.21       0.348644       0.548644       0.348644       0.348644       0.116426      -0.255096
  7718.44       0.36315       0.56315       0.36315       0.36315       0.0809368   0.204553
  7718.69       0.391335       0.591335       0.391335       0.391335       0.0928596  -0.0876578
  7718.94       0.413571       0.613571       0.413571       0.413571       0.140607       0.334297
  7719.17       0.454267       0.654267       0.454267       0.454267       0.125456      -0.276539
  7719.42       0.481538       0.681538       0.481538       0.481538       0.150901       0.155888
  7719.67       0.517209       0.717209       0.517209       0.517209       0.138552       0.118303
  7719.9       0.558319       0.758319       0.558319       0.558319       0.194307      -0.00148603
  7720.15       0.602486       0.802486       0.602486       0.602486       0.216634       0.079707
  7720.4       0.649419       0.849419       0.649419       0.649419       0.140787      -0.135201
  7720.65       0.689129       0.889129       0.689129       0.689129       0.186511       0.336234
  7720.88       0.745873       0.945873       0.745873       0.745873       0.209632      -0.197637
  7721.13       0.795332       0.995332       0.795332       0.795332       0.198428       0.0110545
  7721.38       0.843866        1.04387       0.843866       0.843866       0.226056       0.211279
  7721.61       0.90234        2.22894       0.902452        2.02905       0.213894      -0.148152
  7721.86       0.956043        2.19704       0.956544        1.99755       0.266867      -0.0846137
  7722.1        1.00332        2.1667        1.0042        1.96758       0.134273       0.00343391
  7722.36        1.05316        2.13541        1.05443        1.93669       0.202729      -0.17257
  7722.59        1.08901        2.10696        1.09065        1.9086       0.143258      -0.206575
  7722.85        1.1148        2.07687        1.11683        1.87891       0.104705       0.176813
  7723.05        1.14418        2.0529        1.14653        1.85525       0.146014      -0.119386
  7723.41        1.18425        2.01223        1.18716        1.81513       0.103681      -0.00432284
  7723.8        1.22806        1.96833        1.23158        1.77185       0.0929825  -0.122551
  7724.2        1.25295        1.9253        1.25709        1.72944       0.0196344  -0.153506
  7724.59        1.25364        1.88398        1.25839        1.68873       0.00777329  -0.024976
  7725.01        1.25028        1.84171        1.25568        1.64712      -0.0318201  -0.0311852
  7726.51        1.19453        1.70066        1.20226        1.5084      -0.0408974   0.000738534
  7728.07        1.13836        1.57181        1.14852        1.38198      -0.0341168   0.00564387
  7729.59        1.09651        1.46216        1.10906        1.2747      -0.0115452   0.0144382
  7731.15        1.0881        1.36624        1.10306        1.18121      -0.00402099   0.00406042
  7732.68        1.08949        1.28607        1.10684        1.10342      -0.00756256  -0.00624742
  7734.21        1.0762        1.21895        1.09594        1.0387      -0.000448943  -0.00172591
  7735.77        1.05855        1.16313        1.08072       0.985306      -0.0146532   0.00774472
  7737.31        1.05977        1.11937        1.08434       0.943938      -0.00434204  -0.0147937
  7738.84        1.02605        1.08549        1.053       0.912449      -0.0174746   0.00749319
  7740.39        1.00992        1.06029        1.03928       0.889659      -0.0151583  -0.00699838
  7741.95       0.976672        1.04271        1.00847       0.874512      -0.0237273  -0.000108085
  7746.97       0.868238        1.02662       0.907856       0.866238      -0.0156921   0.00187855
  7751.94       0.80756        1.04219       0.854915       0.889542      -0.010767   0.00101725
  7756.95       0.771809        1.05947       0.826974       0.91464      -0.000421511   0.00252249
  7761.95       0.798893        1.07339       0.861845       0.936346       0.00769862   0.0010833
  7766.97       0.853472        1.08423       0.924242       0.955005       0.0103779  -7.44789e-05
  7771.99       0.906227        1.09214       0.984821       0.97073       0.0109769  -0.00110465
  7777       0.93104        1.09727        1.01744       0.983672       0.00147206  -0.000685719
  7784.15       0.936674        1.10023        1.03422       0.997776      -0.00378332  -0.000521713
  7791.28       0.915756        1.09857        1.02441        1.00723       0.000830727   0.000209797
  7798.44       0.905536        1.09283        1.02534        1.01263      -0.00344314  -0.00029815
  7805.61       0.879973        1.08354        1.01096        1.01453      -0.00322667   0.00017393
  7812.81       0.863347        1.07126        1.00554        1.01345      -3.79008e-05  -6.99254e-05
  7819.99       0.843138        1.05658       0.996525        1.00996      -0.00339866   4.92465e-05
  7827.22       0.825376        1.03995       0.990026        1.0046      -0.00465078   5.26412e-05
  7834.44       0.810387        1.02209       0.986278       0.997981       0.000921207  -7.24181e-05
  7841.69       0.791516        1.00343       0.978705       0.990623      -0.00182874   0.000730958
  7845.32       0.801334       0.994014       0.994178       0.986859       0.00270455   0.00124884