File: Dynamic XAS/Dynamic XAS Energy analyzed data/ESweep_0_5 Hz/Same Eo/Normalized Spectra/Ir0_5Hz_ReaddMean_VPhsCorrect_14_242_mV_.csv.nor
# XDI/1.0 Athena/0.9.26
# Element.edge:                  K
# Element.symbol:                Co
# Column.1:                      energy eV
# Column.2:                      norm
# Column.3:                      nbkg
# Column.4:                      flat
# Column.5:                      fbkg
# Column.6:                      nder
# Column.7:                      nsec
# Athena.e0:                     7721.54
# Athena.eshift:                 0
# Athena.rbkg:                   1.0
# Athena.importance:             1
# Athena.standard:               None
# Athena.bkg_kweight:            3
# Athena.edge_step:              1.19612
# Athena.fixed_step:             no
# Athena.pre_edge_range:         -82.964 -19.904
# Athena.pre_edge_line:          0.267474 + 0.000179807 * E
# Athena.normalization_range:    45 125.256
# Athena.post_edge_polynomial:   15.7927 - 0.00167593 * E + 0 * E^2 + 0 * E^3
# Athena.spline_range_energy:    0.000 125.180
# Athena.clamps:                 0 24
# Athena.spline_range_k:         0.000 5.732
# Athena.kweight:                2
# Athena.window:                 hanning
# Athena.phase_correction:       no
# Athena.k_range:                .4 5.35
# Athena.dk:                     .5
# Athena.r_range:                .4 5.1
# Athena.dr:                     .5
# Athena.window:                 hanning
# Athena.plot_multiplier:        1
# Athena.y_offset:               0.2
# ///
#------------------------
#   e         norm        nbkg        flat        fbkg        nder        nsec
  7600.07      -0.214367      -0.0143666  -0.214367      -0.214367       0.0119903  -0.000490976
  7624.56      -0.0478729   0.152127      -0.0478729  -0.0478729   0.00300497  -0.000206
  7649.7      -0.0144943   0.185506      -0.0144943  -0.0144943  -0.000301652   9.07149e-05
  7674.73       0.0755112   0.275511       0.0755112   0.0755112   0.000196454  -0.000274258
  7700.01      -0.0078351   0.192165      -0.0078351  -0.0078351   0.000347043   0.000798
  7700.72      -0.00278548   0.197215      -0.00278548  -0.00278548   0.00366622  -0.0176961
  7701.43      -0.00633495   0.193665      -0.00633495  -0.00633495   0.00264981   0.0145384
  7702.15      -0.00229364   0.197706      -0.00229364  -0.00229364  -0.00435747  -0.0175003
  7702.88      -0.00732007   0.19268      -0.00732007  -0.00732007  -0.00211983   0.0104092
  7703.6      -0.00686954   0.19313      -0.00686954  -0.00686954   0.00210407   0.00976208
  7704.32      -0.00132778   0.198672      -0.00132778  -0.00132778   0.00572062  -0.013038
  7705.02      -0.0025939   0.197406      -0.0025939  -0.0025939  -0.0057756   0.00177625
  7705.75      -0.00302331   0.196977      -0.00302331  -0.00302331   0.0176325   0.0352595
  7706.47       0.0151607   0.215161       0.0151607   0.0151607   0.028265   0.00868464
  7707.2       0.0379474   0.237947       0.0379474   0.0379474   0.0253934  -0.0189406
  7707.91       0.0506587   0.250659       0.0506587   0.0506587   0.00543562  -0.0189655
  7708.65       0.0535586   0.253559       0.0535586   0.0535586   0.000263573  -0.0146911
  7709.29       0.0494717   0.249472       0.0494717   0.0494717   0.0035205   0.0212753
  7709.9       0.0535892   0.253589       0.0535892   0.0535892  -0.00679575  -0.0346307
  7710.51       0.0446802   0.24468       0.0446802   0.0446802  -0.00769399   0.0186311
  7711.11       0.042792   0.242792       0.042792   0.042792   0.00581473   0.0110826
  7711.73       0.0448856   0.244886       0.0448856   0.0448856  -0.00526271  -0.0115971
  7712.33       0.0426263   0.242626       0.0426263   0.0426263  -0.0114613   0.0130996
  7712.95       0.0453173   0.245317       0.0453173   0.0453173   0.0162834   0.0313171
  7713.54       0.0586838   0.258684       0.0586838   0.0586838   0.0421926   0.0601404
  7714.16       0.0960735   0.296073       0.0960735   0.0960735   0.0726409   0.0132833
  7714.78       0.138092       0.338092       0.138092       0.138092       0.0517694  -0.0584035
  7715.39       0.158043       0.358043       0.158043       0.158043       0.0410557   0.0241865
  7715.97       0.185645       0.385645       0.185645       0.185645       0.0318242  -0.0772563
  7716.26       0.188765       0.388765       0.188765       0.188765       0.0290673   0.211185
  7716.5       0.203306       0.403306       0.203306       0.203306       0.054973  -0.00151266
  7716.73       0.217163       0.417162       0.217163       0.217163       0.050418  -0.0608898
  7716.99       0.228427       0.428427       0.228427       0.228427       0.0435979  -0.0310471
  7717.23       0.23747       0.43747       0.23747       0.23747       0.0529245   0.201102
  7717.46       0.257389       0.457389       0.257389       0.257389       0.0448644  -0.208616
  7717.71       0.266441       0.466441       0.266441       0.266441       0.0945573   0.188212
  7717.96       0.287329       0.487329       0.287329       0.287329       0.0664706   0.124246
  7718.21       0.314973       0.514973       0.314973       0.314973       0.109586      -0.209146
  7718.44       0.328898       0.528898       0.328898       0.328898       0.0777555   0.179912
  7718.69       0.354938       0.554938       0.354938       0.354938       0.084289  -0.0554311
  7718.94       0.376922       0.576922       0.376922       0.376922       0.136136       0.296927
  7719.17       0.415202       0.615202       0.415202       0.415202       0.127065      -0.2953
  7719.42       0.4387       0.6387       0.4387       0.4387       0.149463       0.235062
  7719.67       0.475284       0.675284       0.475284       0.475284       0.123691       0.0738697
  7719.9       0.514625       0.714625       0.514625       0.514625       0.193884       0.0489963
  7720.15       0.560028       0.760028       0.560028       0.560028       0.21594       0.0530892
  7720.4       0.606642       0.806642       0.606642       0.606642       0.131647      -0.105782
  7720.65       0.647849       0.847849       0.647849       0.647849       0.186136       0.28635
  7720.88       0.703088       0.903088       0.703088       0.703088       0.227742      -0.1941
  7721.13       0.751128       0.951128       0.751128       0.751128       0.204242       0.097743
  7721.38       0.803258        1.00326       0.803258       0.803258       0.231063       0.231683
  7721.61       0.866344        2.26829       0.866456        2.0684       0.243874      -0.168083
  7721.86       0.92378        2.2353       0.924279        2.0358       0.2658      -0.0712189
  7722.1       0.975414        2.20391       0.976289        2.00478       0.166381       0.0199665
  7722.36        1.03089        2.17154        1.03216        1.97281       0.231543      -0.14112
  7722.59        1.07382        2.14211        1.07545        1.94375       0.153557      -0.251434
  7722.85        1.10445        2.11098        1.10648        1.91301       0.137432       0.22482
  7723.05        1.14006        2.08618        1.14241        1.88852       0.17545      -0.139482
  7723.41        1.1891        2.0441        1.19199        1.847       0.123141      -0.0142693
  7723.8        1.24133        1.99869        1.24484        1.80219       0.101122      -0.154287
  7724.2        1.26971        1.95417        1.27384        1.75829       0.0372647  -0.14437
  7724.59        1.27528        1.91142        1.28002        1.71615       0.0170902  -0.0464878
  7725.01        1.27357        1.86769        1.27895        1.67307      -0.0348162  -0.0427215
  7726.51        1.20757        1.72174        1.21527        1.52945      -0.0491365   0.000535546
  7728.07        1.14024        1.5884        1.15037        1.39853      -0.0395235   0.0100485
  7729.59        1.09775        1.47491        1.11024        1.2874      -0.0096232   0.0161593
  7731.15        1.09275        1.37562        1.10765        1.19053      -0.000736836   0.00414708
  7732.68        1.09771        1.29261        1.11499        1.10989      -0.00738646  -0.0083799
  7734.21        1.08299        1.22311        1.10265        1.04277      -0.00168947  -0.00240775
  7735.77        1.06224        1.16528        1.08433       0.987362      -0.0158517   0.00769468
  7737.31        1.06031        1.11993        1.08478       0.944392      -0.00496038  -0.0122985
  7738.84        1.02932        1.08479        1.05617       0.911639      -0.0177302   0.00628134
  7740.39        1.01307        1.05864        1.04231       0.887884      -0.0150806  -0.00671488
  7741.95       0.980379        1.04037        1.01205       0.872035      -0.023703  -0.000276312
  7746.97       0.870954        1.02347       0.910406       0.862923      -0.0164638   0.00173746
  7751.94       0.805791        1.0394       0.852948       0.886558      -0.0112235   0.00104159
  7756.95       0.766122        1.05722       0.821057       0.912154      -0.001106   0.00259168
  7761.95       0.791021        1.07166       0.853711       0.934346       0.00780132   0.001302
  7766.97       0.848935        1.083       0.91941       0.953477       0.0111708  -9.85078e-06
  7771.99       0.906648        1.09138       0.984915       0.96965       0.0114231  -0.00128211
  7777       0.93194        1.09697        1.01798       0.983006       0.00197506  -0.000651309
  7784.15       0.939751        1.1005        1.03689       0.997635      -0.00399146  -0.000581089
  7791.28       0.917985        1.09931        1.02619        1.00751       0.000899819   0.000203504
  7798.44       0.906591        1.09393        1.02589        1.01323      -0.00336759  -0.000244199
  7805.61       0.882621        1.08485        1.01306        1.01529      -0.00354364   9.90548e-05
  7812.81       0.863717        1.07262        1.00532        1.01422       8.10219e-05  -2.26618e-05
  7819.99       0.843672        1.05781       0.99642        1.01055      -0.00366799   3.33599e-05
  7827.22       0.825245        1.04085       0.989209        1.00481      -0.00440516   5.98549e-05
  7834.44       0.809968        1.02242       0.985125       0.997581       0.000851482  -4.02644e-05
  7841.69       0.792496        1.00295       0.978905       0.989362      -0.00179599   0.000681733
  7845.32       0.801717       0.993026       0.993757       0.985066       0.00254017   0.00119453