File: Dynamic XAS/Dynamic XAS Energy analyzed data/ESweep_0_5 Hz/Same Eo/Normalized Spectra/Ir0_5Hz_ReaddMean_VPhsCorrect_19_159_mV_.csv.nor
# XDI/1.0 Athena/0.9.26
# Element.edge:                  K
# Element.symbol:                Co
# Column.1:                      energy eV
# Column.2:                      norm
# Column.3:                      nbkg
# Column.4:                      flat
# Column.5:                      fbkg
# Column.6:                      nder
# Column.7:                      nsec
# Athena.e0:                     7721.54
# Athena.eshift:                 0
# Athena.rbkg:                   1.0
# Athena.importance:             1
# Athena.standard:               None
# Athena.bkg_kweight:            3
# Athena.edge_step:              1.19672
# Athena.fixed_step:             no
# Athena.pre_edge_range:         -82.964 -19.904
# Athena.pre_edge_line:          0.258607 + 0.000180944 * E
# Athena.normalization_range:    45 125.256
# Athena.post_edge_polynomial:   15.8621 - 0.00168485 * E + 0 * E^2 + 0 * E^3
# Athena.spline_range_energy:    0.000 125.180
# Athena.clamps:                 0 24
# Athena.spline_range_k:         0.000 5.732
# Athena.kweight:                2
# Athena.window:                 hanning
# Athena.phase_correction:       no
# Athena.k_range:                .4 5.35
# Athena.dk:                     .5
# Athena.r_range:                .4 5.1
# Athena.dr:                     .5
# Athena.window:                 hanning
# Athena.plot_multiplier:        1
# Athena.y_offset:               0.2
# ///
#------------------------
#   e         norm        nbkg        flat        fbkg        nder        nsec
  7600.07      -0.21321      -0.0132096  -0.21321      -0.21321       0.0119475  -0.000488513
  7624.56      -0.0471267   0.152873      -0.0471267  -0.0471267   0.0029964  -0.000207297
  7649.7      -0.0150361   0.184964      -0.0150361  -0.0150361  -0.00031231   9.31856e-05
  7674.73       0.0752333   0.275233       0.0752333   0.0752333   0.000178616  -0.000275329
  7700.01      -0.00852691   0.191473      -0.00852691  -0.00852691   0.000359523   0.000945791
  7700.72      -0.00212074   0.197879      -0.00212074  -0.00212074   0.00508177  -0.0215962
  7701.43      -0.00620677   0.193793      -0.00620677  -0.00620677   0.000670796   0.0158346
  7702.15      -0.00202713   0.197973      -0.00202713  -0.00202713  -0.00363738  -0.0161222
  7702.88      -0.00619926   0.193801      -0.00619926  -0.00619926  -0.00245972   0.0076209
  7703.6      -0.00635948   0.193641      -0.00635948  -0.00635948   0.00261992   0.0121601
  7704.32      -0.00018181   0.199818      -0.00018181  -0.00018181   0.00496501  -0.0156932
  7705.02      -0.0021781   0.197822      -0.0021781  -0.0021781  -0.00486312   0.00449923
  7705.75      -0.00199578   0.198004      -0.00199578  -0.00199578   0.0162795   0.0325434
  7706.47       0.0153606   0.215361       0.0153606   0.0153606   0.0281369   0.00990027
  7707.2       0.0379499   0.23795       0.0379499   0.0379499   0.026347  -0.0151469
  7707.91       0.0524456   0.252446       0.0524456   0.0524456   0.00530669  -0.0253269
  7708.65       0.0537977   0.253798       0.0537977   0.0537977   0.00136238  -0.0122953
  7709.29       0.0494302   0.24943       0.0494302   0.0494302   0.00264249   0.0237072
  7709.9       0.054196   0.254196       0.054196   0.054196  -0.00671186  -0.03814
  7710.51       0.0446145   0.244615       0.0446145   0.0446145  -0.00973043   0.0214303
  7711.11       0.0430902   0.24309       0.0430902   0.0430902   0.00850606   0.00845405
  7711.73       0.0445999   0.2446       0.0445999   0.0445999  -0.00853583  -0.00934641
  7712.33       0.0426043   0.242604       0.0426043   0.0426043  -0.00788927   0.00954586
  7712.95       0.044209   0.244209       0.044209   0.044209   0.0145684   0.0361757
  7713.54       0.0582304   0.25823       0.0582304   0.0582304   0.04198   0.0559506
  7714.16       0.0947043   0.294704       0.0947043   0.0947043   0.0749786   0.0186547
  7714.78       0.137859       0.337859       0.137859       0.137859       0.0479361  -0.0614695
  7715.39       0.157799       0.357799       0.157799       0.157799       0.0446987   0.025242
  7715.97       0.185759       0.385759       0.185759       0.185759       0.0224509  -0.0717638
  7716.26       0.189777       0.389777       0.189777       0.189777       0.0414327   0.158219
  7716.5       0.20212       0.40212       0.20212       0.20212       0.0657139   0.0855025
  7716.73       0.21902       0.41902       0.21902       0.21902       0.040958  -0.178887
  7716.99       0.226169       0.426169       0.226169       0.226169       0.0375866   0.0283707
  7717.23       0.234664       0.434664       0.234664       0.234664       0.0491709   0.231045
  7717.46       0.255779       0.455779       0.255779       0.255779       0.0485414  -0.203297
  7717.71       0.266445       0.466445       0.266445       0.266445       0.0854878   0.146719
  7717.96       0.286367       0.486367       0.286367       0.286367       0.0896731   0.108006
  7718.21       0.312134       0.512134       0.312134       0.312134       0.0945431  -0.178262
  7718.44       0.326108       0.526108       0.326108       0.326108       0.0965771   0.165741
  7718.69       0.351326       0.551326       0.351326       0.351326       0.075397  -0.0366959
  7718.94       0.373575       0.573575       0.373575       0.373575       0.132554       0.279327
  7719.17       0.411082       0.611082       0.411082       0.411082       0.122719      -0.174269
  7719.42       0.441151       0.641151       0.441151       0.441151       0.147043       0.0500845
  7719.67       0.473412       0.673412       0.473412       0.473412       0.13736       0.103787
  7719.9       0.510401       0.710401       0.510401       0.510401       0.183351       0.138588
  7720.15       0.558849       0.758849       0.558849       0.558849       0.202451      -0.0303256
  7720.4       0.603665       0.803665       0.603665       0.603665       0.164336      -0.0827903
  7720.65       0.644454       0.844454       0.644454       0.644454       0.186068       0.240996
  7720.88       0.69666       0.89666       0.69666       0.69666       0.208153      -0.0137827
  7721.13       0.752707       0.952707       0.752707       0.752707       0.194992      -0.0480634
  7721.38       0.804234        1.00423       0.804234       0.804234       0.253191       0.225635
  7721.61       0.866391        2.26629       0.866503        2.0664       0.219576      -0.203325
  7721.86       0.920681        2.23333       0.921183        2.03384       0.291592      -0.013875
  7722.1       0.972461        2.20198       0.97334        2.00286       0.145351       0.0271979
  7722.36        1.02855        2.16965        1.02982        1.97092       0.230375      -0.142043
  7722.59        1.072        2.14026        1.07364        1.9419       0.173623      -0.242986
  7722.85        1.10371        2.10916        1.10575        1.9112       0.122923       0.1918
  7723.05        1.13861        2.08439        1.14096        1.88674       0.179847      -0.111891
  7723.41        1.18891        2.04236        1.19182        1.84527       0.123774      -0.0262778
  7723.8        1.24071        1.997        1.24423        1.80052       0.105061      -0.138262
  7724.2        1.27118        1.95253        1.27532        1.75668       0.0324536  -0.171611
  7724.59        1.27457        1.90983        1.27933        1.71459       0.0208558  -0.0399452
  7725.01        1.27162        1.86615        1.27702        1.67156      -0.0362707  -0.0379848
  7726.51        1.2078        1.72038        1.21555        1.52813      -0.0479996  -0.000341905
  7728.07        1.14059        1.58721        1.15077        1.39738      -0.0401419   0.00919603
  7729.59        1.09622        1.47386        1.10877        1.28641      -0.00989341   0.0171382
  7731.15        1.09162        1.3747        1.1066        1.18968      -0.000443037   0.00371643
  7732.68        1.09595        1.2918        1.11332        1.10917      -0.00760315  -0.00742024
  7734.21        1.08286        1.22239        1.10262        1.04215      -0.000475897  -0.00292063
  7735.77        1.06254        1.16465        1.08473       0.986839      -0.016825   0.00752189
  7737.31        1.06061        1.11936        1.0852       0.94395      -0.0042321  -0.012738
  7738.84        1.02859        1.08429        1.05556       0.911267      -0.0192123   0.00692508
  7740.39        1.01282        1.05819        1.04221       0.887573      -0.0134037  -0.00726135
  7741.95       0.979303        1.03995        1.01113       0.871775      -0.0248331  -6.47138e-05
  7746.97       0.870718        1.02313       0.910364       0.862774      -0.0160933   0.00168728
  7751.94       0.805141        1.03908       0.852529       0.886469      -0.0112507   0.00101227
  7756.95       0.764318        1.0569       0.819523       0.912103      -0.000831522   0.00273555
  7761.95       0.791644        1.07132       0.854642       0.934319       0.00773671   0.00119872
  7766.97       0.849385        1.08264       0.920206       0.953462       0.011313  -9.91681e-05
  7771.99       0.904684        1.09098       0.983335       0.969636       0.0109807  -0.00111521
  7777       0.93177        1.09652        1.01823       0.982986       0.00236657  -0.000718879
  7784.15       0.939207        1.09998        1.03682       0.997597      -0.00421573  -0.000592463
  7791.28       0.916489        1.09872        1.02522        1.00745       0.000808495   0.000252028
  7798.44       0.906629        1.09326        1.02652        1.01315      -0.00347567  -0.000309642
  7805.61       0.880838        1.08413        1.01192        1.0152      -0.0033873   0.000133477
  7812.81       0.861891        1.07184        1.00419        1.01414       0.000199737   1.38703e-05
  7819.99       0.843684        1.05701       0.997182        1.01051      -0.00371744   1.62758e-05
  7827.22       0.826216        1.04006       0.990985        1.00483      -0.00465167   1.58019e-05
  7834.44       0.809604        1.02169       0.985622       0.997704       0.00108023  -3.63103e-05
  7841.69       0.790999        1.00231       0.978323       0.989634      -0.00191019   0.000714524
  7845.32       0.800517       0.992449       0.9935       0.985432       0.0026219   0.00124851