File: Dynamic XAS/Dynamic XAS Energy analyzed data/ESweep_0_5 Hz/Same Eo/Normalized Spectra/Ir0_5Hz_ReaddMean_VPhsCorrect_38_-248_mV_.csv.nor
# XDI/1.0 Athena/0.9.26
# Element.edge:                  K
# Element.symbol:                Co
# Column.1:                      energy eV
# Column.2:                      norm
# Column.3:                      nbkg
# Column.4:                      flat
# Column.5:                      fbkg
# Column.6:                      nder
# Column.7:                      nsec
# Athena.e0:                     7721.54
# Athena.eshift:                 0
# Athena.rbkg:                   1.0
# Athena.importance:             1
# Athena.standard:               None
# Athena.bkg_kweight:            3
# Athena.edge_step:              1.1929
# Athena.fixed_step:             no
# Athena.pre_edge_range:         -82.964 -19.904
# Athena.pre_edge_line:          -0.007993 + 0.000215711 * E
# Athena.normalization_range:    45 125.256
# Athena.post_edge_polynomial:   15.5909 - 0.00164997 * E + 0 * E^2 + 0 * E^3
# Athena.spline_range_energy:    0.000 125.180
# Athena.clamps:                 0 24
# Athena.spline_range_k:         0.000 5.732
# Athena.kweight:                2
# Athena.window:                 hanning
# Athena.phase_correction:       no
# Athena.k_range:                .4 5.35
# Athena.dk:                     .5
# Athena.r_range:                .4 5.1
# Athena.dr:                     .5
# Athena.window:                 hanning
# Athena.plot_multiplier:        1
# Athena.y_offset:               0.2
# ///
#------------------------
#   e         norm        nbkg        flat        fbkg        nder        nsec
  7600.07      -0.212384      -0.0123839  -0.212384      -0.212384       0.0121572  -0.000505544
  7624.56      -0.0455745   0.154425      -0.0455745  -0.0455745   0.00285947  -0.000211929
  7649.7      -0.0158305   0.18417      -0.0158305  -0.0158305  -0.000314765   0.000105438
  7674.73       0.0797701   0.27977       0.0797702   0.0797702   0.000160932  -0.000292182
  7700.01      -0.00931348   0.190687      -0.00931348  -0.00931348   0.000471578   0.00108516
  7700.72      -0.00176645   0.198234      -0.00176645  -0.00176645   0.00359144  -0.0263079
  7701.43      -0.0070029   0.192997      -0.0070029  -0.0070029   0.00173774   0.0204403
  7702.15      -0.00156916   0.198431      -0.00156916  -0.00156916  -0.00274976  -0.0201758
  7702.88      -0.00658622   0.193414      -0.00658622  -0.00658622  -0.0037486   0.0100893
  7703.6      -0.00629402   0.193706      -0.00629402  -0.00629402   0.0019143   0.00946833
  7704.32      -0.00106459   0.198935      -0.00106459  -0.00106459   0.0047599  -0.0129091
  7705.02      -0.00256508   0.197435      -0.00256508  -0.00256508  -0.00258291   0.00338517
  7705.75      -0.00242633   0.197574      -0.00242633  -0.00242633   0.0164615   0.0352896
  7706.47       0.0163363   0.216336       0.0163363   0.0163363   0.0295312   0.00794103
  7707.2       0.0393163   0.239316       0.0393163   0.0393163   0.027062  -0.01969
  7707.91       0.0518281   0.251828       0.0518281   0.0518281   0.00267418  -0.0234333
  7708.65       0.0521639   0.252164       0.0521639   0.0521639  -0.00141206  -0.010755
  7709.29       0.0475976   0.247598       0.0475976   0.0475976   0.00106345   0.0241567
  7709.9       0.0523432   0.252343       0.0523432   0.0523432  -0.00301637  -0.0346945
  7710.51       0.0440363   0.244036       0.0440363   0.0440363  -0.00766235   0.0229913
  7711.11       0.0443186   0.244319       0.0443186   0.0443186   0.0117547   0.0130556
  7711.73       0.0493886   0.249389       0.0493886   0.0493886  -0.00353628  -0.0137615
  7712.33       0.0492556   0.249256       0.0492556   0.0492556  -0.00594166   0.0123993
  7712.95       0.0538479   0.253848       0.0538479   0.0538479   0.0219093   0.0362719
  7713.54       0.0707214   0.270721       0.0707214   0.0707214   0.0450504   0.0570704
  7714.16       0.110664       0.310664       0.110664       0.110664       0.0762466   0.0045444
  7714.78       0.151885       0.351885       0.151885       0.151885       0.0524409  -0.0471096
  7715.39       0.175222       0.375222       0.175222       0.175222       0.0459599   0.0198362
  7715.97       0.204572       0.404572       0.204572       0.204572       0.030748  -0.0792699
  7716.26       0.208269       0.408269       0.208269       0.208269       0.0296694   0.206244
  7716.5       0.223032       0.423032       0.223032       0.223032       0.0665091   0.00455322
  7716.73       0.237459       0.437459       0.237459       0.237459       0.0529538  -0.0251624
  7716.99       0.251595       0.451595       0.251595       0.251595       0.0441338  -0.0984326
  7717.23       0.259535       0.459535       0.259535       0.259535       0.0636421   0.254837
  7717.46       0.281486       0.481486       0.281486       0.281486       0.0596643  -0.196986
  7717.71       0.293437       0.493437       0.293437       0.293437       0.0994097   0.193303
  7717.96       0.317566       0.517566       0.317566       0.317566       0.0734222   0.0676837
  7718.21       0.345171       0.545171       0.345171       0.345171       0.122467      -0.16711
  7718.44       0.361567       0.561567       0.361567       0.361567       0.0741749   0.141518
  7718.69       0.387887       0.587887       0.387887       0.387887       0.0892033  -0.0225544
  7718.94       0.411995       0.611995       0.411995       0.411995       0.142219       0.28544
  7719.17       0.451634       0.651634       0.451634       0.451634       0.126796      -0.279239
  7719.42       0.47759       0.67759       0.47759       0.47759       0.159402       0.190559
  7719.67       0.513991       0.713991       0.513991       0.513991       0.132444       0.146101
  7719.9       0.557451       0.757451       0.557451       0.557451       0.187067      -0.0594554
  7720.15       0.60054       0.80054       0.60054       0.60054       0.218749       0.071924
  7720.4       0.645997       0.845997       0.645997       0.645997       0.142759      -0.0703277
  7720.65       0.688217       0.888217       0.688217       0.688217       0.181953       0.300741
  7720.88       0.745242       0.945242       0.745242       0.745242       0.215268      -0.247493
  7721.13       0.791879       0.991879       0.791879       0.791879       0.211366       0.0303169
  7721.38       0.838785        1.03879       0.838785       0.838785       0.216625       0.266089
  7721.61       0.89896        2.2323       0.899073        2.03241       0.220778      -0.157375
  7721.86       0.953926        2.20029       0.95443        2.00079       0.256986      -0.0878696
  7722.1        1.00224        2.16983        1.00312        1.97072       0.139092      -0.0309545
  7722.36        1.05097        2.13843        1.05225        1.93971       0.211825      -0.118074
  7722.59        1.08904        2.10987        1.09068        1.91152       0.141041      -0.262381
  7722.85        1.11375        2.07967        1.1158        1.88172       0.107387       0.228786
  7723.05        1.14476        2.05561        1.14712        1.85797       0.14542      -0.152748
  7723.41        1.18462        2.01478        1.18754        1.8177       0.104831       0.0110168
  7723.8        1.23055        1.97073        1.23408        1.77426       0.0902209  -0.158111
  7724.2        1.25196        1.92754        1.25612        1.73169       0.0248847  -0.113022
  7724.59        1.25553        1.88606        1.2603        1.69084       0.0096169  -0.0492354
  7725.01        1.25125        1.84364        1.25667        1.64906      -0.031754  -0.0287434
  7726.51        1.19556        1.70207        1.20333        1.50984      -0.0422306   0.000707608
  7728.07        1.1394        1.57276        1.1496        1.38297      -0.035077   0.00521662
  7729.59        1.09656        1.46271        1.10915        1.2753      -0.0107771   0.0146799
  7731.15        1.0877        1.36646        1.10272        1.18148      -0.00381423   0.00434973
  7732.68        1.08934        1.286        1.10676        1.10343      -0.00777958  -0.00575922
  7734.21        1.07746        1.21866        1.09728        1.03848      -0.000183418  -0.0028417
  7735.77        1.05856        1.16266        1.08082       0.984922      -0.0140511   0.00785693
  7737.31        1.05883        1.11876        1.08349       0.943428      -0.00536101  -0.014136
  7738.84        1.0257        1.08479        1.05276       0.911849      -0.0178557   0.00753415
  7740.39        1.01027        1.05953        1.03975       0.889004      -0.0152298  -0.00799848
  7741.95       0.975312        1.04191        1.00724       0.87383      -0.0236896   0.0003118
  7746.97       0.868325        1.02585       0.908095       0.865617      -0.0162153   0.00185436
  7751.94       0.808478        1.04154       0.856015       0.889082      -0.0101832   0.000887054
  7756.95       0.7703        1.05894       0.82568       0.914322      -0.000603866   0.00264789
  7761.95       0.798084        1.07294       0.86128       0.936133       0.00768237   0.00108916
  7766.97       0.853513        1.08382       0.924558       0.954865       0.0105326  -7.45863e-05
  7771.99       0.907117        1.09174       0.986015       0.970635       0.0108  -0.00123238
  7777       0.92956        1.09686        1.01629       0.983599       0.001867  -0.000554833
  7784.15       0.937497        1.09978        1.03542       0.997704      -0.00407276  -0.000565634
  7791.28       0.916641        1.09806        1.02572        1.00713       0.000843889   0.000168298
  7798.44       0.904355        1.09224        1.02462        1.01251      -0.00338817  -0.000271216
  7805.61       0.878103        1.08289        1.00959        1.01438      -0.0032403   0.000178462
  7812.81       0.861019        1.07054        1.00376        1.01329       2.92609e-06  -2.46072e-05
  7819.99       0.842691        1.05584       0.996672        1.00982      -0.00347044   3.34421e-05
  7827.22       0.825996        1.03925       0.991284        1.00453      -0.00462517   1.78877e-05
  7834.44       0.810265        1.02147       0.986836       0.998042       0.00101844  -7.59525e-05
  7841.69       0.790461        1.00298       0.978375       0.99089      -0.00194719   0.000756638
  7845.32       0.800489       0.993671       0.99408       0.987263       0.00276242   0.00129741