File: Dynamic XAS/Dynamic XAS Energy analyzed data/ESweep_0_5 Hz/Same Eo/Normalized Spectra/Ir0_5Hz_ReaddMean_VPhsCorrect_23_47_mV_.csv.nor
# XDI/1.0 Athena/0.9.26
# Element.edge:                  K
# Element.symbol:                Co
# Column.1:                      energy eV
# Column.2:                      norm
# Column.3:                      nbkg
# Column.4:                      flat
# Column.5:                      fbkg
# Column.6:                      nder
# Column.7:                      nsec
# Athena.e0:                     7721.54
# Athena.eshift:                 0
# Athena.rbkg:                   1.0
# Athena.importance:             1
# Athena.standard:               None
# Athena.bkg_kweight:            3
# Athena.edge_step:              1.19411
# Athena.fixed_step:             no
# Athena.pre_edge_range:         -82.964 -19.904
# Athena.pre_edge_line:          0.220006 + 0.000186033 * E
# Athena.normalization_range:    45 125.256
# Athena.post_edge_polynomial:   15.6258 - 0.00165449 * E + 0 * E^2 + 0 * E^3
# Athena.spline_range_energy:    0.000 125.180
# Athena.clamps:                 0 24
# Athena.spline_range_k:         0.000 5.732
# Athena.kweight:                2
# Athena.window:                 hanning
# Athena.phase_correction:       no
# Athena.k_range:                .4 5.35
# Athena.dk:                     .5
# Athena.r_range:                .4 5.1
# Athena.dr:                     .5
# Athena.window:                 hanning
# Athena.plot_multiplier:        1
# Athena.y_offset:               0.2
# ///
#------------------------
#   e         norm        nbkg        flat        fbkg        nder        nsec
  7600.07      -0.213825      -0.0138247  -0.213825      -0.213825       0.0120059  -0.000494693
  7624.56      -0.0479105   0.152089      -0.0479105  -0.0479105   0.00297555  -0.000205118
  7649.7      -0.0145379   0.185462      -0.0145379  -0.0145379  -0.000291444   9.136e-05
  7674.73       0.0758654   0.275865       0.0758654   0.0758654   0.000162492  -0.000276282
  7700.01      -0.00836527   0.191635      -0.00836527  -0.00836527   0.000384703   0.000906201
  7700.72      -0.0023388   0.197661      -0.0023388  -0.0023388   0.00506014  -0.0196238
  7701.43      -0.0058445   0.194156      -0.0058445  -0.0058445   0.000566597   0.0132163
  7702.15      -0.00245208   0.197548      -0.00245208  -0.00245208  -0.00454663  -0.0140325
  7702.88      -0.00632991   0.19367      -0.00632991  -0.00632991  -0.00181325   0.00666158
  7703.6      -0.00669988   0.1933      -0.00669988  -0.00669988   0.00253713   0.0109902
  7704.32      -0.00134297   0.198657      -0.00134298  -0.00134297   0.00317729  -0.0127597
  7705.02      -0.00264589   0.197354      -0.00264589  -0.00264589  -0.00250665   0.00209192
  7705.75      -0.00295418   0.197046      -0.00295418  -0.00295418   0.0155727   0.0335064
  7706.47       0.0144245   0.214425       0.0144245   0.0144245   0.0276044   0.0116609
  7707.2       0.037954   0.237954       0.037954   0.037954   0.0274503  -0.020687
  7707.91       0.0504903   0.25049       0.0504903   0.0504903   0.00534412  -0.0172829
  7708.65       0.0541016   0.254102       0.0541016   0.0541016   0.000974326  -0.0186626
  7709.29       0.048846   0.248846       0.048846   0.048846   0.00187974   0.0245327
  7709.9       0.053077   0.253077       0.053077   0.053077  -0.00507422  -0.0351162
  7710.51       0.0440987   0.244099       0.0440987   0.0440987  -0.00826981   0.0180384
  7711.11       0.0419277   0.241928       0.0419277   0.0419277   0.00499294   0.0111889
  7711.73       0.0437665   0.243766       0.0437665   0.0437665  -0.0077696  -0.00824286
  7712.33       0.0425063   0.242506       0.0425063   0.0425063  -0.00694068   0.0073607
  7712.95       0.0440279   0.244028       0.0440279   0.0440279   0.0158854   0.034803
  7713.54       0.0574961   0.257496       0.0574961   0.0574961   0.0430386   0.06167
  7714.16       0.0955831   0.295583       0.0955831   0.0955831   0.0789158   0.0119267
  7714.78       0.137775       0.337775       0.137775       0.137775       0.044963  -0.0492251
  7715.39       0.161291       0.361291       0.161291       0.161291       0.0495813   0.0129021
  7715.97       0.188402       0.388402       0.188402       0.188402       0.0154484  -0.0551705
  7716.26       0.194204       0.394204       0.194204       0.194204       0.0368894   0.0662167
  7716.5       0.202922       0.402922       0.202922       0.202922       0.080982   0.148579
  7716.73       0.220079       0.420079       0.220079       0.220079       0.0410504  -0.190011
  7716.99       0.226808       0.426808       0.226808       0.226808       0.0294726   0.0717996
  7717.23       0.237389       0.437389       0.237389       0.237389       0.0414361   0.161925
  7717.46       0.256512       0.456512       0.256512       0.256512       0.057898  -0.122925
  7717.71       0.269845       0.469845       0.269845       0.269845       0.0853761   0.10393
  7717.96       0.289781       0.489781       0.289781       0.289781       0.10918       0.0780964
  7718.21       0.313854       0.513854       0.313854       0.313854       0.0782233  -0.122787
  7718.44       0.329523       0.529523       0.329523       0.329523       0.0979353   0.114018
  7718.69       0.353364       0.553364       0.353364       0.353364       0.0939208   0.0751025
  7718.94       0.380587       0.580587       0.380587       0.380587       0.108904       0.1246
  7719.17       0.413834       0.613834       0.413834       0.413834       0.122251      -0.0183727
  7719.42       0.448823       0.648823       0.448823       0.448823       0.160208      -0.0122418
  7719.67       0.482267       0.682267       0.482267       0.482267       0.153988       0.0298947
  7719.9       0.515993       0.715993       0.515993       0.515993       0.158058       0.26952
  7720.15       0.569077       0.769077       0.569077       0.569077       0.207112      -0.143494
  7720.4       0.611938       0.811938       0.611938       0.611938       0.183362      -0.0693134
  7720.65       0.65156       0.85156       0.65156       0.65156       0.174575       0.230734
  7720.88       0.702077       0.902077       0.702077       0.702077       0.21808       0.0579597
  7721.13       0.760782       0.960782       0.760782       0.760782       0.179172      -0.158082
  7721.38       0.808578        1.00858       0.808578       0.808578       0.250691       0.258138
  7721.61       0.869125        2.27031       0.869236        2.07042       0.22983      -0.185686
  7721.86       0.922762        2.23727       0.923259        2.03776       0.289915       0.00907137
  7722.1       0.975189        2.20583       0.976058        2.0067       0.143406       0.0424601
  7722.36        1.03293        2.17341        1.03419        1.97467       0.221616      -0.18471
  7722.59        1.07537        2.14393        1.077        1.94555       0.177126      -0.232811
  7722.85        1.10664        2.11275        1.10865        1.91477       0.11901       0.183671
  7723.05        1.14078        2.08791        1.14311        1.89024       0.173355      -0.0997814
  7723.41        1.19087        2.04577        1.19375        1.84864       0.125133      -0.0172321
  7723.8        1.24382        2.00028        1.2473        1.80377       0.104175      -0.166602
  7724.2        1.27098        1.95569        1.27507        1.75979       0.0236983  -0.144854
  7724.59        1.27526        1.91288        1.27997        1.71758       0.0236308  -0.0803323
  7725.01        1.26665        1.86908        1.272        1.67443      -0.0347208  -0.0199108
  7726.51        1.20776        1.72292        1.21541        1.53057      -0.0485458  -0.001516
  7728.07        1.14278        1.58939        1.15283        1.39945      -0.039392   0.00824358
  7729.59        1.09836        1.47575        1.11077        1.28816      -0.0102327   0.0173013
  7731.15        1.09411        1.37633        1.10891        1.19114       0.00144498   0.00227122
  7732.68        1.09533        1.29323        1.1125        1.1104      -0.00907725  -0.00614923
  7734.21        1.08211        1.22365        1.10164        1.04318      -0.00189362  -0.00178047
  7735.77        1.06439        1.16577        1.08633       0.987712      -0.0155726   0.00612696
  7737.31        1.06167        1.12039        1.08598       0.944698      -0.00453597  -0.0121897
  7738.84        1.03016        1.08525        1.05683       0.911918      -0.0171738   0.0063542
  7740.39        1.01355        1.0591        1.0426       0.888152      -0.0152949  -0.00689641
  7741.95       0.980055        1.04084        1.01152       0.872304      -0.0245817  -3.41459e-05
  7746.97       0.872058        1.02406       0.911252       0.863251      -0.0160237   0.00161098
  7751.94       0.805167        1.04011       0.852016       0.886962      -0.0116552   0.00112107
  7756.95       0.765746        1.05801       0.820323       0.912588      -0.000563125   0.00269628
  7761.95       0.793495        1.07248       0.855775       0.934758       0.00773519   0.00115155
  7766.97       0.850466        1.08381       0.92048       0.953827       0.0110898  -1.9066e-05
  7771.99       0.907004        1.09215       0.984759       0.969907       0.0111433  -0.00122675
  7777       0.932517        1.09767        1.01799       0.983151       0.00224921  -0.000699277
  7784.15       0.938561        1.10111        1.03506       0.997606      -0.00398094  -0.000534676
  7791.28       0.917393        1.09983        1.02489        1.00732       0.000556278   0.000245794
  7798.44       0.908768        1.09439        1.02729        1.01292      -0.00328971  -0.000346069
  7805.61       0.882346        1.08535        1.01193        1.01493      -0.00342005   0.000145826
  7812.81       0.863403        1.07324        1.00408        1.01391       0.000275964   5.20837e-05
  7819.99       0.847173        1.05869       0.998923        1.01044      -0.00377784  -6.17437e-05
  7827.22       0.82762        1.04216       0.990512        1.00506      -0.00435244   4.79895e-05
  7834.44       0.8106        1.02436       0.984613       0.998378       0.000942959  -4.21857e-05
  7841.69       0.791276        1.00576       0.976466       0.990946      -0.00191869   0.000816018
  7845.32       0.803108       0.996355       0.993894       0.987141       0.00325966   0.00142654