File: Dynamic XAS/Dynamic XAS Energy analyzed data/ESweep_0_5 Hz/Same Eo/Normalized Spectra/Ir0_5Hz_ReaddMean_VPhsCorrect_31_-182_mV_.csv.nor
# XDI/1.0 Athena/0.9.26
# Element.edge:                  K
# Element.symbol:                Co
# Column.1:                      energy eV
# Column.2:                      norm
# Column.3:                      nbkg
# Column.4:                      flat
# Column.5:                      fbkg
# Column.6:                      nder
# Column.7:                      nsec
# Athena.e0:                     7721.54
# Athena.eshift:                 0
# Athena.rbkg:                   1.0
# Athena.importance:             1
# Athena.standard:               None
# Athena.bkg_kweight:            3
# Athena.edge_step:              1.19317
# Athena.fixed_step:             no
# Athena.pre_edge_range:         -82.964 -19.904
# Athena.pre_edge_line:          0.099930 + 0.000201589 * E
# Athena.normalization_range:    45 125.256
# Athena.post_edge_polynomial:   15.5584 - 0.00164588 * E + 0 * E^2 + 0 * E^3
# Athena.spline_range_energy:    0.000 125.180
# Athena.clamps:                 0 24
# Athena.spline_range_k:         0.000 5.732
# Athena.kweight:                2
# Athena.window:                 hanning
# Athena.phase_correction:       no
# Athena.k_range:                .4 5.35
# Athena.dk:                     .5
# Athena.r_range:                .4 5.1
# Athena.dr:                     .5
# Athena.window:                 hanning
# Athena.plot_multiplier:        1
# Athena.y_offset:               0.2
# ///
#------------------------
#   e         norm        nbkg        flat        fbkg        nder        nsec
  7600.07      -0.212453      -0.0124533  -0.212453      -0.212453       0.0121242  -0.000510334
  7624.56      -0.0476923   0.152308      -0.0476923  -0.0476923   0.00289299  -0.000204386
  7649.7      -0.0150147   0.184985      -0.0150147  -0.0150147  -0.000373405   9.71665e-05
  7674.73       0.0783305   0.278331       0.0783305   0.0783305   0.000212373  -0.000285475
  7700.01      -0.00876923   0.191231      -0.00876923  -0.00876923   0.000433525   0.000984571
  7700.72      -0.00209773   0.197902      -0.00209773  -0.00209773   0.0047175  -0.0224412
  7701.43      -0.00632884   0.193671      -0.00632884  -0.00632884   0.000383101   0.0165827
  7702.15      -0.00190334   0.198097      -0.00190334  -0.00190334  -0.00361912  -0.0149327
  7702.88      -0.00521113   0.194789      -0.00521113  -0.00521113  -0.00179343   0.00210027
  7703.6      -0.00740431   0.192596      -0.00740431  -0.00740431   0.0035268   0.016872
  7704.32      -0.000814693   0.199185      -0.000814693  -0.000814693   0.00271913  -0.0172922
  7705.02      -0.00322289   0.196777      -0.00322289  -0.00322289  -0.00382209   0.00725439
  7705.75      -0.00207872   0.197921      -0.00207872  -0.00207872   0.0175486   0.0319176
  7706.47       0.0159   0.2159       0.0159   0.0159   0.0295258   0.0116651
  7707.2       0.0400342   0.240034       0.0400342   0.0400342   0.0255046  -0.0217823
  7707.91       0.0525984   0.252598       0.0525984   0.0525984   0.00404947  -0.0214957
  7708.65       0.0540116   0.254012       0.0540116   0.0540116   0.000367028  -0.0135412
  7709.29       0.0491347   0.249135       0.0491347   0.0491347   0.00233439   0.0201346
  7709.9       0.0520708   0.252071       0.0520708   0.0520708  -0.00598835  -0.0271445
  7710.51       0.0447975   0.244797       0.0447975   0.0447975  -0.00671694   0.0178729
  7711.11       0.0442238   0.244224       0.0442238   0.0442238   0.00832287   0.0108239
  7711.73       0.0475881   0.247588       0.0475881   0.0475881  -0.00568752  -0.00615018
  7712.33       0.0486112   0.248611       0.0486112   0.0486112  -0.00537471  -0.000876465
  7712.95       0.0493202   0.24932       0.0493202   0.0493202   0.0183897   0.0431309
  7713.54       0.0649011   0.264901       0.0649011   0.0649011   0.0469793   0.0615484
  7714.16       0.105191       0.305191       0.105191       0.105191       0.0733024   0.000212295
  7714.78       0.145109       0.345109       0.145109       0.145109       0.047504  -0.0364923
  7715.39       0.171084       0.371084       0.171084       0.171084       0.0497018  -0.00124194
  7715.97       0.195645       0.395646       0.195646       0.195646       0.0250368  -0.0390841
  7716.26       0.202342       0.402342       0.202342       0.202342       0.0287688   0.101132
  7716.5       0.213791       0.413791       0.213791       0.213791       0.0755714   0.069786
  7716.73       0.228902       0.428902       0.228902       0.228902       0.0566041  -0.0681832
  7716.99       0.241075       0.441075       0.241075       0.241075       0.0493184   0.0306442
  7717.23       0.254528       0.454528       0.254528       0.254528       0.0281904   0.0510638
  7717.46       0.270014       0.470013       0.270014       0.270014       0.0778078  -0.0989541
  7717.71       0.280845       0.480845       0.280845       0.280845       0.0869102   0.30053
  7717.96       0.310547       0.510547       0.310547       0.310547       0.080366  -0.166503
  7718.21       0.330271       0.530272       0.330272       0.330272       0.108694       0.0644999
  7718.44       0.352964       0.552964       0.352964       0.352964       0.0666172  -0.0801745
  7718.69       0.372348       0.572348       0.372348       0.372348       0.111957       0.223518
  7718.94       0.40364       0.60364       0.40364       0.40364       0.111867       0.0042922
  7719.17       0.433766       0.633766       0.433766       0.433766       0.131707      -0.0424593
  7719.42       0.463889       0.663889       0.463889       0.463889       0.186325       0.173281
  7719.67       0.503355       0.703355       0.503355       0.503355       0.116582      -0.0411816
  7719.9       0.538608       0.738608       0.538608       0.538608       0.165265       0.15939
  7720.15       0.586481       0.786481       0.586481       0.586481       0.222505       0.0668902
  7720.4       0.636249       0.836249       0.636249       0.636249       0.164977      -0.147328
  7720.65       0.678111       0.878111       0.678111       0.678111       0.170775       0.141966
  7720.88       0.725553       0.925553       0.725553       0.725553       0.243149      -0.0149322
  7721.13       0.776334       0.976334       0.776334       0.776334       0.179307      -0.0204536
  7721.38       0.824343        1.02434       0.824343       0.824343       0.220424       0.241128
  7721.61       0.884086        2.24615       0.884197        2.04626       0.263371      -0.134394
  7721.86       0.939989        2.21381       0.940488        2.01431       0.235734      -0.0959486
  7722.1       0.988764        2.18304       0.989637        1.98391       0.159638       0.0100116
  7722.36        1.0406        2.15131        1.04186        1.95257       0.210202      -0.0472342
  7722.59        1.08574        2.12246        1.08738        1.92409       0.148552      -0.409718
  7722.85        1.10895        2.09195        1.11098        1.89397       0.111733       0.380595
  7723.05        1.14602        2.06763        1.14836        1.86997       0.164789      -0.251575
  7723.41        1.18743        2.02638        1.19032        1.82927       0.109137       0.0187374
  7723.8        1.23626        1.98187        1.23976        1.78537       0.0982797  -0.160181
  7724.2        1.26029        1.93823        1.2644        1.74234       0.0214129  -0.146297
  7724.59        1.26124        1.89632        1.26597        1.70105       0.00866003  -0.008204
  7725.01        1.26091        1.85346        1.26628        1.65883      -0.0323955  -0.0421804
  7726.51        1.20066        1.7104        1.20835        1.51809      -0.0440594   0.000924358
  7728.07        1.14028        1.57972        1.15038        1.38982      -0.0345957   0.00658959
  7729.59        1.09651        1.46848        1.10897        1.28095      -0.0104447   0.0169427
  7731.15        1.09206        1.37118        1.10693        1.18606      -0.00248112   0.00235535
  7732.68        1.09329        1.28984        1.11054        1.10708      -0.00850816  -0.00557573
  7734.21        1.08143        1.22173        1.10105        1.04136      -0.00029195  -0.00351319
  7735.77        1.06094        1.16508        1.08298       0.987118      -0.0163846   0.00778623
  7737.31        1.05948        1.12065        1.0839       0.94507      -0.00434293  -0.0122445
  7738.84        1.02909        1.08625        1.05588       0.913038      -0.0176852   0.00545818
  7740.39        1.01148        1.06064        1.04067       0.889827      -0.0150467  -0.00538375
  7741.95       0.980641        1.04276        1.01225       0.874364      -0.0237346  -0.000694982
  7746.97       0.870227        1.02627       0.909601       0.865648      -0.0161013   0.00187631
  7751.94       0.807533        1.04192       0.854596       0.888982      -0.0106229   0.000987759
  7756.95       0.769007        1.05934       0.823833       0.914171      -0.000763892   0.00262115
  7761.95       0.795778        1.0734       0.858343       0.935962       0.00747123   0.00117474
  7766.97       0.852354        1.08437       0.922689       0.9547       0.0106223  -6.69989e-05
  7771.99       0.907296        1.09239       0.985406       0.970497       0.0108906  -0.00112126
  7777       0.933872        1.09764        1.01974       0.983503       0.00211547  -0.00073798
  7784.15       0.939753        1.10075        1.03669       0.997687      -0.00390356  -0.000584067
  7791.28       0.915908        1.09921        1.02389        1.0072       0.000720256   0.000255229
  7798.44       0.905084        1.09359        1.02415        1.01266      -0.00343301  -0.000247029
  7805.61       0.88154        1.08441        1.01172        1.01458      -0.00317686   0.00013205
  7812.81       0.86477        1.0722        1.00609        1.01352      -0.000125188  -8.82785e-05
  7819.99       0.843472        1.05758       0.995915        1.01002      -0.00354788   7.54194e-05
  7827.22       0.825982        1.041       0.989618        1.00464      -0.0041874   4.44378e-05
  7834.44       0.810836        1.02316       0.985644       0.997973       0.000900963  -6.67996e-05
  7841.69       0.792103        1.00451       0.97814       0.990549      -0.00204955   0.000739684
  7845.32       0.80222       0.995086       0.993877       0.986743       0.00278696   0.00133237