File: Dynamic XAS/Dynamic XAS Energy analyzed data/ESweep_0_5 Hz/Same Eo/Normalized Spectra/Ir0_5Hz_ReaddMean_VPhsCorrect_25_-16_mV_.csv.nor
# XDI/1.0 Athena/0.9.26
# Element.edge:                  K
# Element.symbol:                Co
# Column.1:                      energy eV
# Column.2:                      norm
# Column.3:                      nbkg
# Column.4:                      flat
# Column.5:                      fbkg
# Column.6:                      nder
# Column.7:                      nsec
# Athena.e0:                     7721.54
# Athena.eshift:                 0
# Athena.rbkg:                   1.0
# Athena.importance:             1
# Athena.standard:               None
# Athena.bkg_kweight:            3
# Athena.edge_step:              1.19367
# Athena.fixed_step:             no
# Athena.pre_edge_range:         -82.964 -19.904
# Athena.pre_edge_line:          0.127806 + 0.000198 * E
# Athena.normalization_range:    45 125.256
# Athena.post_edge_polynomial:   15.6176 - 0.00165346 * E + 0 * E^2 + 0 * E^3
# Athena.spline_range_energy:    0.000 125.180
# Athena.clamps:                 0 24
# Athena.spline_range_k:         0.000 5.732
# Athena.kweight:                2
# Athena.window:                 hanning
# Athena.phase_correction:       no
# Athena.k_range:                .4 5.35
# Athena.dk:                     .5
# Athena.r_range:                .4 5.1
# Athena.dr:                     .5
# Athena.window:                 hanning
# Athena.plot_multiplier:        1
# Athena.y_offset:               0.2
# ///
#------------------------
#   e         norm        nbkg        flat        fbkg        nder        nsec
  7600.07      -0.213691      -0.0136912  -0.213691      -0.213691       0.0120969  -0.000502518
  7624.56      -0.0475754   0.152425      -0.0475754  -0.0475754   0.00294149  -0.000206682
  7649.7      -0.0150403   0.18496      -0.0150403  -0.0150403  -0.000319063   9.55101e-05
  7674.73       0.0771263   0.277126       0.0771263   0.0771263   0.000183297  -0.000281637
  7700.01      -0.00872538   0.191275      -0.00872538  -0.00872538   0.000406905   0.000932776
  7700.72      -0.00249836   0.197502      -0.00249836  -0.00249836   0.00400324  -0.0207593
  7701.43      -0.00635633   0.193644      -0.00635633  -0.00635633   0.00202666   0.0151134
  7702.15      -0.00232471   0.197675      -0.00232471  -0.00232471  -0.00448459  -0.0166067
  7702.88      -0.00689699   0.193103      -0.00689699  -0.00689699  -0.00170771   0.00830074
  7703.6      -0.00709935   0.192901      -0.00709935  -0.00709935   0.0018228   0.0110334
  7704.32      -0.00155141   0.198449      -0.00155141  -0.00155141   0.00317254  -0.011997
  7705.02      -0.00228637   0.197714      -0.00228637  -0.00228637  -0.00250669   0.000393331
  7705.75      -0.00285829   0.197142      -0.00285829  -0.00285829   0.0150712   0.03406
  7706.47       0.0145515   0.214552       0.0145515   0.0145515   0.0292917   0.0122398
  7707.2       0.038414   0.238414       0.038414   0.038414   0.0274277  -0.0219077
  7707.91       0.0506434   0.250643       0.0506434   0.0506434   0.00490752  -0.016544
  7708.65       0.0543331   0.254333       0.0543331   0.0543331   0.000821287  -0.0189638
  7709.29       0.0490104   0.24901       0.0490104   0.0490104   0.00257608   0.0263773
  7709.9       0.0538719   0.253872       0.0538719   0.0538719  -0.00797821  -0.0385641
  7710.51       0.0442265   0.244226       0.0442265   0.0442265  -0.008394   0.0206275
  7711.11       0.0423481   0.242348       0.0423481   0.0423481   0.00597608   0.0122282
  7711.73       0.044871   0.244871       0.044871   0.044871  -0.00625254  -0.00676602
  7712.33       0.0448354   0.244835       0.0448354   0.0448354  -0.00668626  -0.000221726
  7712.95       0.0447146   0.244715       0.0447146   0.0447146   0.0154261   0.0409786
  7713.54       0.0587684   0.258768       0.0587684   0.0587684   0.0454467   0.0599309
  7714.16       0.0968093   0.296809       0.0968093   0.0968093   0.077544   0.0133245
  7714.78       0.139487       0.339487       0.139487       0.139487       0.0438791  -0.0464844
  7715.39       0.164496       0.364496       0.164496       0.164496       0.0503395   0.00270403
  7715.97       0.189501       0.389501       0.189501       0.189501       0.0194599  -0.0419505
  7716.26       0.196032       0.396032       0.196032       0.196032       0.029385   0.0498352
  7716.5       0.20446       0.40446       0.20446       0.20446       0.0828918   0.173749
  7716.73       0.222829       0.422828       0.222829       0.222829       0.0494395  -0.219701
  7716.99       0.229008       0.429008       0.229008       0.229008       0.0330601   0.110141
  7717.23       0.241259       0.441259       0.241259       0.241259       0.0327536   0.101103
  7717.46       0.258476       0.458476       0.258476       0.258476       0.0686648  -0.105379
  7717.71       0.270796       0.470796       0.270796       0.270796       0.0807521   0.186987
  7717.96       0.294903       0.494903       0.294903       0.294903       0.107155      -0.0276747
  7718.21       0.317044       0.517044       0.317044       0.317044       0.0805576  -0.063934
  7718.44       0.334379       0.534379       0.334379       0.334379       0.0853011   0.0535878
  7718.69       0.356277       0.556277       0.356277       0.356277       0.108023       0.164799
  7718.94       0.386683       0.586683       0.386683       0.386683       0.100565       0.0225866
  7719.17       0.417028       0.617028       0.417028       0.417028       0.127967       0.0194691
  7719.42       0.451181       0.651181       0.451181       0.451181       0.170996       0.0767612
  7719.67       0.488978       0.688978       0.488978       0.488978       0.150123      -0.0979239
  7719.9       0.519262       0.719262       0.519262       0.519262       0.152861       0.355109
  7720.15       0.573967       0.773967       0.573967       0.573967       0.209403      -0.140032
  7720.4       0.618582       0.818582       0.618582       0.618582       0.18192      -0.0975988
  7720.65       0.658247       0.858247       0.658247       0.658247       0.172835       0.199448
  7720.88       0.706981       0.906981       0.706981       0.706981       0.234168       0.0577618
  7721.13       0.763731       0.963731       0.763731       0.763731       0.160723      -0.133845
  7721.38       0.811022        1.01102       0.811022       0.811022       0.242477       0.276326
  7721.61       0.872168        2.2668       0.87228        2.06691       0.243519      -0.17283
  7721.86       0.927232        2.23385       0.927731        2.03435       0.276588      -0.0698001
  7722.1       0.976649        2.20251       0.977524        2.00339       0.147939       0.0599422
  7722.36        1.03235        2.17019        1.03362        1.97146       0.228991      -0.134724
  7722.59        1.07588        2.1408        1.07751        1.94244       0.16231      -0.259828
  7722.85        1.10664        2.10972        1.10866        1.91175       0.125108       0.216434
  7723.05        1.14194        2.08495        1.14428        1.8873       0.167925      -0.147433
  7723.41        1.18973        2.04294        1.19262        1.84583       0.117761      -0.0162232
  7723.8        1.24027        1.99759        1.24378        1.8011       0.105598      -0.140164
  7724.2        1.26919        1.95314        1.27331        1.75726       0.0221682  -0.16257
  7724.59        1.27244        1.91045        1.27718        1.71519       0.0168908  -0.0652079
  7725.01        1.26522        1.86679        1.2706        1.67217      -0.0318622  -0.024885
  7726.51        1.20435        1.72107        1.21206        1.52877      -0.0479091   0.000744602
  7728.07        1.14289        1.58795        1.15301        1.39807      -0.0383604   0.0061309
  7729.59        1.09698        1.47465        1.10947        1.28714      -0.00987537   0.0185801
  7731.15        1.09424        1.37554        1.10915        1.19044      -0.000493012   0.00198704
  7732.68        1.09628        1.29269        1.11356        1.10997      -0.00811419  -0.00677149
  7734.21        1.08241        1.22332        1.10207        1.04298      -0.00154358  -0.00192506
  7735.77        1.0637        1.16562        1.08577       0.9877      -0.0157335   0.00683446
  7737.31        1.06169        1.12038        1.08615       0.944838      -0.00461158  -0.0125669
  7738.84        1.02999        1.08534        1.05683       0.912179      -0.0184347   0.00671879
  7740.39        1.01406        1.05927        1.0433       0.888505      -0.0141236  -0.00733453
  7741.95       0.980207        1.04106        1.01187       0.872725      -0.0243757   4.51434e-05
  7746.97       0.872347        1.02431       0.911789       0.863753      -0.0162819   0.00159245
  7751.94       0.805131        1.04028       0.852275       0.887429      -0.0111357   0.00113288
  7756.95       0.765678        1.05807       0.8206       0.912992      -0.000886672   0.00273602
  7761.95       0.794383        1.07242       0.857057       0.935093       0.00758214   0.0010879
  7766.97       0.850705        1.08363       0.921162       0.954086       0.0111482  -2.80121e-05
  7771.99       0.90637        1.09184       0.984616       0.970087       0.0112738  -0.00118378
  7777       0.932094        1.09724        1.01811       0.983253       0.00210067  -0.000680327
  7784.15       0.939262        1.10049        1.03637       0.997599      -0.00402348  -0.000596171
  7791.28       0.916086        1.09904        1.02426        1.00722       0.000650802   0.000261955
  7798.44       0.906277        1.09346        1.02555        1.01273      -0.00341229  -0.000272735
  7805.61       0.882431        1.08429        1.01284        1.01469      -0.00331657   0.000100174
  7812.81       0.863711        1.07209        1.00527        1.01365       4.5086e-05  -1.84666e-05
  7819.99       0.844065        1.05749       0.996773        1.0102      -0.00360405   4.38842e-05
  7827.22       0.82659        1.04097       0.99051        1.00489      -0.00440345   3.15063e-05
  7834.44       0.810787        1.02323       0.985899       0.998337       0.000992695  -8.09134e-05
  7841.69       0.790652        1.00474       0.977011       0.991096      -0.0019023   0.000822037
  7845.32       0.802237       0.995423       0.994227       0.987413       0.00319145   0.00140324