File: Dynamic XAS/Dynamic XAS Energy analyzed data/ESweep_0_5 Hz/Same Eo/Normalized Spectra/Ir0_5Hz_ReaddMean_VPhsCorrect_24_16_mV_.csv.nor
# XDI/1.0 Athena/0.9.26
# Element.edge:                  K
# Element.symbol:                Co
# Column.1:                      energy eV
# Column.2:                      norm
# Column.3:                      nbkg
# Column.4:                      flat
# Column.5:                      fbkg
# Column.6:                      nder
# Column.7:                      nsec
# Athena.e0:                     7721.54
# Athena.eshift:                 0
# Athena.rbkg:                   1.0
# Athena.importance:             1
# Athena.standard:               None
# Athena.bkg_kweight:            3
# Athena.edge_step:              1.19373
# Athena.fixed_step:             no
# Athena.pre_edge_range:         -82.964 -19.904
# Athena.pre_edge_line:          0.130155 + 0.000197712 * E
# Athena.normalization_range:    45 125.256
# Athena.post_edge_polynomial:   15.6177 - 0.00165345 * E + 0 * E^2 + 0 * E^3
# Athena.spline_range_energy:    0.000 125.180
# Athena.clamps:                 0 24
# Athena.spline_range_k:         0.000 5.732
# Athena.kweight:                2
# Athena.window:                 hanning
# Athena.phase_correction:       no
# Athena.k_range:                .4 5.35
# Athena.dk:                     .5
# Athena.r_range:                .4 5.1
# Athena.dr:                     .5
# Athena.window:                 hanning
# Athena.plot_multiplier:        1
# Athena.y_offset:               0.2
# ///
#------------------------
#   e         norm        nbkg        flat        fbkg        nder        nsec
  7600.07      -0.213261      -0.0132606  -0.213261      -0.213261       0.0120373  -0.000497102
  7624.56      -0.0472026   0.152797      -0.0472026  -0.0472026   0.00293427  -0.00020644
  7649.7      -0.0145651   0.185435      -0.0145651  -0.0145651  -0.000292621   9.39714e-05
  7674.73       0.0767405   0.276741       0.0767405   0.0767405   0.000172395  -0.000278608
  7700.01      -0.00805673   0.191943      -0.00805673  -0.00805673   0.000367561   0.000825512
  7700.72      -0.00279312   0.197207      -0.00279312  -0.00279312   0.00504685  -0.0174928
  7701.43      -0.0060275   0.193972      -0.0060275  -0.0060275   0.00129129   0.0121151
  7702.15      -0.00293867   0.197061      -0.00293867  -0.00293867  -0.00541461  -0.0128897
  7702.88      -0.00652817   0.193472      -0.00652817  -0.00652817  -0.00097115   0.00654772
  7703.6      -0.00667069   0.193329      -0.00667069  -0.00667069   0.0023883   0.00969303
  7704.32      -0.00176126   0.198239      -0.00176126  -0.00176126   0.00299624  -0.0111438
  7705.02      -0.00267783   0.197322      -0.00267783  -0.00267783  -0.00271174   0.000970997
  7705.75      -0.00314799   0.196852      -0.00314799  -0.00314799   0.0154533   0.0340333
  7706.47       0.0143485   0.214349       0.0143485   0.0143485   0.0279548   0.0123971
  7707.2       0.0383801   0.23838       0.0383801   0.0383801   0.0285917  -0.0227371
  7707.91       0.0503441   0.250344       0.0503441   0.0503441   0.00425341  -0.015705
  7708.65       0.0542075   0.254207       0.0542075   0.0542075   0.0010597  -0.0197122
  7709.29       0.0486994   0.248699       0.0486994   0.0486994   0.00250316   0.0260814
  7709.9       0.0532731   0.253273       0.0532731   0.0532731  -0.00683821  -0.0369964
  7710.51       0.0439299   0.24393       0.0439299   0.0439299  -0.00820445   0.0204609
  7711.11       0.0422848   0.242285       0.0422848   0.0422848   0.00551232   0.00892442
  7711.73       0.0438412   0.243841       0.0438412   0.0438412  -0.0071764  -0.00409917
  7712.33       0.0438471   0.243847       0.0438471   0.0438471  -0.00633754  -0.000216673
  7712.95       0.0437706   0.243771       0.0437706   0.0437706   0.0151529   0.0406022
  7713.54       0.057736   0.257736       0.057736   0.057736   0.0442806   0.061374
  7714.16       0.0962383   0.296238       0.0962383   0.0962383   0.0779674   0.0103099
  7714.78       0.138227       0.338227       0.138227       0.138227       0.0448837  -0.0467576
  7715.39       0.162453       0.362453       0.162453       0.162453       0.0500263   0.00738821
  7715.97       0.188332       0.388332       0.188332       0.188332       0.0164418  -0.0431982
  7716.26       0.195121       0.395121       0.195121       0.195121       0.0370063   0.043006
  7716.5       0.203388       0.403388       0.203388       0.203388       0.0800419   0.162723
  7716.73       0.220949       0.420949       0.220949       0.220949       0.045449  -0.185996
  7716.99       0.228372       0.428372       0.228372       0.228372       0.0322931   0.0589515
  7717.23       0.238883       0.438883       0.238883       0.238883       0.0344964   0.144952
  7717.46       0.256973       0.456973       0.256973       0.256973       0.0633266  -0.0993902
  7717.71       0.270599       0.470598       0.270599       0.270599       0.0836285   0.119768
  7717.96       0.29182       0.49182       0.29182       0.29182       0.108834       0.0407865
  7718.21       0.315029       0.515029       0.315029       0.315029       0.080132  -0.0851525
  7718.44       0.332118       0.532118       0.332118       0.332118       0.0897665   0.0553575
  7718.69       0.353861       0.553861       0.353861       0.353861       0.10203       0.145506
  7718.94       0.38303       0.58303       0.38303       0.38303       0.103442       0.0736999
  7719.17       0.415171       0.615171       0.415171       0.415171       0.123776       0.00250159
  7719.42       0.450236       0.650236       0.450236       0.450236       0.167486       0.0111983
  7719.67       0.485116       0.685116       0.485116       0.485116       0.153886      -0.0119605
  7719.9       0.517725       0.717725       0.517725       0.517725       0.156163       0.302411
  7720.15       0.571653       0.771653       0.571653       0.571653       0.207446      -0.150115
  7720.4       0.61495       0.81495       0.61495       0.61495       0.180726      -0.078865
  7720.65       0.654427       0.854427       0.654427       0.654427       0.176657       0.22936
  7720.88       0.704727       0.904727       0.704727       0.704727       0.225282       0.0384295
  7721.13       0.761972       0.961972       0.761972       0.761972       0.169924      -0.133981
  7721.38       0.809734        1.00973       0.809734       0.809734       0.244444       0.254139
  7721.61       0.870013        2.26522       0.870125        2.06533       0.237584      -0.157883
  7721.86       0.925059        2.23233       0.925558        2.03283       0.284758      -0.0415358
  7722.1       0.976032        2.20104       0.976906        2.00192       0.142521       0.0383348
  7722.36        1.03199        2.16878        1.03325        1.97005       0.22669      -0.154593
  7722.59        1.07456        2.13945        1.0762        1.94108       0.171858      -0.221651
  7722.85        1.10666        2.10842        1.10869        1.91045       0.122663       0.163553
  7723.05        1.14052        2.0837        1.14286        1.88604       0.170383      -0.100492
  7723.41        1.19005        2.04176        1.19294        1.84465       0.120687      -0.0206267
  7723.8        1.24185        1.99649        1.24535        1.8       0.104855      -0.152687
  7724.2        1.27005        1.95212        1.27417        1.75624       0.0216123  -0.154749
  7724.59        1.27382        1.90951        1.27856        1.71424       0.0207873  -0.0747427
  7725.01        1.26559        1.86592        1.27097        1.6713      -0.0330218  -0.0209545
  7726.51        1.20658        1.72046        1.21428        1.52816      -0.0479424  -0.000895518
  7728.07        1.143        1.58756        1.15312        1.39768      -0.0388981   0.00697796
  7729.59        1.09701        1.47444        1.1095        1.28693      -0.0105221   0.0189007
  7731.15        1.09494        1.37548        1.10983        1.19038       0.000377509   0.00106075
  7732.68        1.09542        1.29275        1.1127        1.11002      -0.00833362  -0.00566759
  7734.21        1.08259        1.22347        1.10225        1.04312      -0.00200383  -0.00241251
  7735.77        1.06377        1.16583        1.08584       0.987908      -0.0154905   0.0068973
  7737.31        1.0618        1.12063        1.08625       0.945088      -0.00433684  -0.0126709
  7738.84        1.0299        1.08562        1.05673       0.91245      -0.0182026   0.00689404
  7740.39        1.01418        1.05955        1.04341       0.88878      -0.0146794  -0.00768582
  7741.95       0.979692        1.04133        1.01135       0.872988      -0.0244063   0.000229442
  7746.97       0.872839        1.02448       0.912272       0.86391      -0.0160994   0.00155557
  7751.94       0.805704        1.04031       0.852838       0.887447      -0.0114924   0.00109838
  7756.95       0.765468        1.058       0.820378       0.912907      -0.000648505   0.00278049
  7761.95       0.794497        1.07229       0.857157       0.93495       0.0076726   0.00104041
  7766.97       0.849944        1.08348       0.920386       0.953921       0.0110707   8.38968e-05
  7771.99       0.90754        1.0917       0.98577       0.969932       0.0111545  -0.0012907
  7777       0.932498        1.09713        1.0185       0.983131       0.00207715  -0.000663314
  7784.15       0.939312        1.10046        1.0364       0.997554      -0.00396896  -0.000583572
  7791.28       0.916424        1.09911        1.02458        1.00726       0.000680038   0.000264962
  7798.44       0.907058        1.09362        1.0263        1.01287      -0.00342626  -0.000297809
  7805.61       0.882369        1.08452        1.01275        1.01489      -0.003347   0.000106621
  7812.81       0.863137        1.07234        1.00467        1.01388       0.000197893   3.82428e-05
  7819.99       0.845904        1.05771       0.99858        1.01039      -0.00368  -4.48405e-05
  7827.22       0.826224        1.04106       0.99011        1.00495      -0.00444119   6.53759e-05
  7834.44       0.809982        1.0231       0.985057       0.99817       0.00107435  -5.455e-05
  7841.69       0.79079        1.00426       0.977111       0.990577      -0.00203032   0.000780939
  7845.32       0.801765       0.994716       0.993714       0.986666       0.00302322   0.00139216