File: Dynamic XAS/Dynamic XAS Energy analyzed data/ESweep_0_5 Hz/Same Eo/Normalized Spectra/Ir0_5Hz_ReaddMean_VPhsCorrect_9_232_mV_.csv.nor
# XDI/1.0 Athena/0.9.26
# Element.edge:                  K
# Element.symbol:                Co
# Column.1:                      energy eV
# Column.2:                      norm
# Column.3:                      nbkg
# Column.4:                      flat
# Column.5:                      fbkg
# Column.6:                      nder
# Column.7:                      nsec
# Athena.e0:                     7721.54
# Athena.eshift:                 0
# Athena.rbkg:                   1.0
# Athena.importance:             1
# Athena.standard:               None
# Athena.bkg_kweight:            3
# Athena.edge_step:              1.19447
# Athena.fixed_step:             no
# Athena.pre_edge_range:         -82.964 -19.904
# Athena.pre_edge_line:          0.238154 + 0.00018365 * E
# Athena.normalization_range:    45 125.256
# Athena.post_edge_polynomial:   15.6287 - 0.00165485 * E + 0 * E^2 + 0 * E^3
# Athena.spline_range_energy:    0.000 125.180
# Athena.clamps:                 0 24
# Athena.spline_range_k:         0.000 5.732
# Athena.kweight:                2
# Athena.window:                 hanning
# Athena.phase_correction:       no
# Athena.k_range:                .4 5.35
# Athena.dk:                     .5
# Athena.r_range:                .4 5.1
# Athena.dr:                     .5
# Athena.window:                 hanning
# Athena.plot_multiplier:        1
# Athena.y_offset:               0.2
# ///
#------------------------
#   e         norm        nbkg        flat        fbkg        nder        nsec
  7600.07      -0.215189      -0.0151887  -0.215189      -0.215189       0.0121402  -0.000505961
  7624.56      -0.0489033   0.151097      -0.0489032  -0.0489032   0.00299138  -0.00020412
  7649.7      -0.0144826   0.185517      -0.0144826  -0.0144826  -0.000366772   9.0967e-05
  7674.73       0.0767182   0.276718       0.0767182   0.0767182   0.000216012  -0.000279851
  7700.01      -0.00897413   0.191026      -0.00897413  -0.00897413   0.000451037   0.00100838
  7700.72      -0.00204273   0.197957      -0.00204273  -0.00204273   0.00316602  -0.0230878
  7701.43      -0.00632748   0.193673      -0.00632748  -0.00632748   0.00201407   0.016792
  7702.15      -0.00184636   0.198154      -0.00184636  -0.00184636  -0.00412553  -0.0174468
  7702.88      -0.00640338   0.193597      -0.00640338  -0.00640338  -0.00328034   0.00792293
  7703.6      -0.00678858   0.193211      -0.00678858  -0.00678858   0.00320496   0.012497
  7704.32      -0.000661553   0.199338      -0.000661553  -0.000661553   0.00563301  -0.0158279
  7705.02      -0.00277436   0.197226      -0.00277436  -0.00277436  -0.00579292   0.00409473
  7705.75      -0.00291891   0.197081      -0.00291891  -0.00291891   0.017602   0.0347205
  7706.47       0.0152628   0.215263       0.0152628   0.0152628   0.0271112   0.00983749
  7707.2       0.0386481   0.238648       0.0386481   0.0386481   0.0282683  -0.0195885
  7707.91       0.0516147   0.251615       0.0516147   0.0516147   0.00470697  -0.0210925
  7708.65       0.0536502   0.25365       0.0536502   0.0536502  -0.00127342  -0.0138914
  7709.29       0.0491632   0.249163       0.0491632   0.0491632   0.00360939   0.0229976
  7709.9       0.0535481   0.253548       0.0535481   0.0535481  -0.00621671  -0.0343745
  7710.51       0.045002   0.245002       0.045002   0.045002  -0.0074834   0.0186025
  7711.11       0.0434562   0.243456       0.0434562   0.0434562   0.00780592   0.0134186
  7711.73       0.0467601   0.24676       0.0467601   0.0467601  -0.00436836  -0.0138833
  7712.33       0.0448415   0.244842       0.0448415   0.0448415  -0.0132715   0.0127009
  7712.95       0.0477279   0.247728       0.0477279   0.0477279   0.0203915   0.0348137
  7713.54       0.0624877   0.262488       0.0624877   0.0624877   0.0430376   0.0577549
  7714.16       0.100443       0.300443       0.100443       0.100443       0.0748374   0.00444062
  7714.78       0.139659       0.339659       0.139659       0.139659       0.0473674  -0.0400661
  7715.39       0.163619       0.363619       0.163619       0.163619       0.0464053   0.0014583
  7715.97       0.18718       0.38718       0.18718       0.18718       0.0274686  -0.0242472
  7716.26       0.195354       0.395354       0.195354       0.195354       0.0246472   0.0673592
  7716.5       0.206182       0.406182       0.206182       0.206182       0.0694471   0.0533538
  7716.73       0.219725       0.419725       0.219725       0.219725       0.0550687   0.0100297
  7716.99       0.235115       0.435115       0.235115       0.235115       0.039593  -0.0989761
  7717.23       0.244227       0.444227       0.244227       0.244227       0.048275   0.160053
  7717.46       0.26187       0.46187       0.26187       0.26187       0.0649033  -0.189391
  7717.71       0.269611       0.469611       0.269611       0.269611       0.0900301   0.335465
  7717.96       0.298381       0.498381       0.298381       0.298381       0.0702627  -0.107896
  7718.21       0.320532       0.520532       0.320532       0.320532       0.110528      -0.023833
  7718.44       0.340271       0.540271       0.340271       0.340271       0.056249  -0.0252056
  7718.69       0.359881       0.559881       0.359881       0.359881       0.109187       0.170809
  7718.94       0.38842       0.58842       0.38842       0.38842       0.116565       0.128576
  7719.17       0.423155       0.623155       0.423155       0.423155       0.127972      -0.1808
  7719.42       0.449812       0.649812       0.449812       0.449812       0.177878       0.183168
  7719.67       0.486469       0.686469       0.486469       0.486469       0.122075       0.102568
  7719.9       0.527585       0.727585       0.527585       0.527585       0.169358      -0.0144828
  7720.15       0.570949       0.770949       0.570949       0.570949       0.223041       0.139886
  7720.4       0.620519       0.820519       0.620519       0.620519       0.150577      -0.176374
  7720.65       0.660377       0.860377       0.660377       0.660377       0.173888       0.280298
  7720.88       0.714002       0.914002       0.714002       0.714002       0.24007      -0.159835
  7721.13       0.762432       0.962432       0.762432       0.762432       0.194957      -0.000886838
  7721.38       0.809286        1.00929       0.809286       0.809286       0.211902       0.300475
  7721.61       0.871447        2.2662       0.871558        2.06631       0.261436      -0.110352
  7721.86       0.931411        2.23324       0.931907        2.03374       0.25611      -0.135512
  7722.1       0.981914        2.20189       0.982782        2.00276       0.16497      -0.0302944
  7722.36        1.03298        2.16955        1.03424        1.97081       0.220924      -0.0320127
  7722.59        1.07833        2.14016        1.07995        1.94178       0.152467      -0.330935
  7722.85        1.10663        2.10906        1.10864        1.91107       0.122807       0.271465
  7723.05        1.14259        2.08428        1.14492        1.88661       0.17106      -0.186537
  7723.41        1.18797        2.04225        1.19084        1.84513       0.120689       0.00566174
  7723.8        1.23921        1.99689        1.24269        1.80037       0.104274      -0.159789
  7724.2        1.26572        1.95243        1.26981        1.75652       0.0229137  -0.143509
  7724.59        1.26957        1.90973        1.27427        1.71442       0.0140625  -0.0397239
  7725.01        1.26714        1.86605        1.27248        1.67139      -0.0323926  -0.0390171
  7726.51        1.20377        1.7203        1.21141        1.52794      -0.0472164   0.00183263
  7728.07        1.14237        1.58716        1.15241        1.39721      -0.038746   0.00595891
  7729.59        1.09613        1.47386        1.10853        1.28626      -0.00814379   0.0184604
  7731.15        1.09277        1.37477        1.10756        1.18955      -0.0015752   0.00293406
  7732.68        1.09645        1.29194        1.1136        1.10908      -0.00699403  -0.00737147
  7734.21        1.08282        1.22261        1.10233        1.04211      -0.00226893  -0.00286052
  7735.77        1.0621        1.16495        1.08401       0.986863      -0.0158252   0.00840066
  7737.31        1.06189        1.11977        1.08616       0.944039      -0.00491968  -0.0137335
  7738.84        1.02923        1.08479        1.05586       0.911426      -0.0173022   0.00740394
  7740.39        1.01396        1.05879        1.04297       0.887804      -0.0138935  -0.00833085
  7741.95       0.978358        1.04066        1.00978       0.872082      -0.0248748   0.000422499
  7746.97       0.871142        1.02418       0.910281       0.863316      -0.0161096   0.00167375
  7751.94       0.806582        1.04041       0.853365       0.887189      -0.0108659   0.00101459
  7756.95       0.766845        1.05841       0.821345       0.912912      -0.00116761   0.00263856
  7761.95       0.792842        1.07294       0.855035       0.93513       0.00787857   0.00120979
  7766.97       0.849527        1.08429       0.919444       0.954204       0.0110765   7.16331e-05
  7771.99       0.908055        1.09261       0.985702       0.970253       0.0108758  -0.00133116
  7777       0.932923        1.09808        1.01828       0.983438       0.00240173  -0.000623882
  7784.15       0.941322        1.10141        1.03769       0.997773      -0.00401871  -0.00064772
  7791.28       0.916752        1.1        1.0241        1.00734       0.000477268   0.000284687
  7798.44       0.90671        1.09444        1.02507        1.0128      -0.00298711  -0.000263449
  7805.61       0.883108        1.08528        1.01251        1.01469      -0.00362886   9.55351e-05
  7812.81       0.864391        1.0731        1.00487        1.01358       7.05047e-05  -1.36035e-05
  7819.99       0.844999        1.05855       0.996538        1.01009      -0.00349929   2.07267e-05
  7827.22       0.826571        1.0421       0.989236        1.00476      -0.00439507   9.54238e-05
  7834.44       0.813142        1.02448       0.986912       0.99825       0.00083355  -0.000140521
  7841.69       0.79226        1.00618       0.977192       0.991113      -0.0017527   0.000837465
  7845.32       0.803877       0.996991       0.994397       0.987511       0.00320048   0.00136451