File: Dynamic XAS/Dynamic XAS Energy analyzed data/ESweep_0_5 Hz/Same Eo/Normalized Spectra/Ir0_5Hz_ReaddMean_VPhsCorrect_22_77_mV_.csv.nor
# XDI/1.0 Athena/0.9.26
# Element.edge:                  K
# Element.symbol:                Co
# Column.1:                      energy eV
# Column.2:                      norm
# Column.3:                      nbkg
# Column.4:                      flat
# Column.5:                      fbkg
# Column.6:                      nder
# Column.7:                      nsec
# Athena.e0:                     7721.54
# Athena.eshift:                 0
# Athena.rbkg:                   1.0
# Athena.importance:             1
# Athena.standard:               None
# Athena.bkg_kweight:            3
# Athena.edge_step:              1.19429
# Athena.fixed_step:             no
# Athena.pre_edge_range:         -82.964 -19.904
# Athena.pre_edge_line:          0.229424 + 0.000184789 * E
# Athena.normalization_range:    45 125.256
# Athena.post_edge_polynomial:   15.6504 - 0.00165767 * E + 0 * E^2 + 0 * E^3
# Athena.spline_range_energy:    0.000 125.180
# Athena.clamps:                 0 24
# Athena.spline_range_k:         0.000 5.732
# Athena.kweight:                2
# Athena.window:                 hanning
# Athena.phase_correction:       no
# Athena.k_range:                .4 5.35
# Athena.dk:                     .5
# Athena.r_range:                .4 5.1
# Athena.dr:                     .5
# Athena.window:                 hanning
# Athena.plot_multiplier:        1
# Athena.y_offset:               0.2
# ///
#------------------------
#   e         norm        nbkg        flat        fbkg        nder        nsec
  7600.07      -0.214051      -0.0140515  -0.214051      -0.214051       0.0120148  -0.000496776
  7624.56      -0.0484591   0.151541      -0.0484591  -0.0484591   0.00299058  -0.000204073
  7649.7      -0.014719   0.185281      -0.014719  -0.014719  -0.000303053   9.0181e-05
  7674.73       0.0753123   0.275312       0.0753123   0.0753123   0.000186212  -0.000275029
  7700.01      -0.00849795   0.191502      -0.00849795  -0.00849795   0.000335713   0.000965497
  7700.72      -0.00191076   0.198089      -0.00191076  -0.00191076   0.00472905  -0.0220456
  7701.43      -0.00603368   0.193966      -0.00603368  -0.00603368   0.0012088   0.0150143
  7702.15      -0.00232119   0.197679      -0.00232119  -0.00232119  -0.00271941  -0.0148033
  7702.88      -0.00627775   0.193722      -0.00627775  -0.00627775  -0.00385906   0.00613718
  7703.6      -0.007001   0.192999      -0.007001  -0.007001   0.00209413   0.013144
  7704.32      -0.000876654   0.199123      -0.000876654  -0.000876654   0.00402385  -0.0145521
  7705.02      -0.00234829   0.197652      -0.00234829  -0.00234829  -0.00232739   0.00270111
  7705.75      -0.00252536   0.197475      -0.00252536  -0.00252536   0.014384   0.0330581
  7706.47       0.0147467   0.214747       0.0147467   0.0147467   0.0290082   0.0103933
  7707.2       0.0375084   0.237508       0.0375084   0.0375084   0.0258111  -0.017869
  7707.91       0.0507541   0.250754       0.0507541   0.0507541   0.00697697  -0.0200558
  7708.65       0.0536212   0.253621       0.0536212   0.0536212   0.000142306  -0.0155558
  7709.29       0.0491145   0.249114       0.0491145   0.0491145   0.00158454   0.0233552
  7709.9       0.0536152   0.253615       0.0536152   0.0536152  -0.0039182  -0.0372238
  7710.51       0.0441138   0.244114       0.0441138   0.0441138  -0.00995891   0.0199744
  7711.11       0.0421381   0.242138       0.0421381   0.0421381   0.0060451   0.0116627
  7711.73       0.044353   0.244353       0.044353   0.044353  -0.008135  -0.0118763
  7712.33       0.0421092   0.242109       0.0421092   0.0421092  -0.00696297   0.0122625
  7712.95       0.0444969   0.244497       0.0444969   0.0444969   0.0155033   0.0315481
  7713.54       0.057657   0.257657       0.057657   0.057657   0.0429213   0.0595077
  7714.16       0.0945833   0.294583       0.0945833   0.0945833   0.0784558   0.0176344
  7714.78       0.137797       0.337797       0.137797       0.137797       0.0442393  -0.0546199
  7715.39       0.160329       0.360329       0.160329       0.160329       0.0500277   0.0162677
  7715.97       0.187662       0.387662       0.187662       0.187662       0.0173565  -0.0590075
  7716.26       0.193064       0.393064       0.193064       0.193064       0.0342423   0.104531
  7716.5       0.203588       0.403588       0.203588       0.203588       0.0797807   0.106511
  7716.73       0.219986       0.419986       0.219986       0.219986       0.0353765  -0.187437
  7716.99       0.22605       0.42605       0.22605       0.22605       0.0316311   0.0749154
  7717.23       0.236171       0.436171       0.236171       0.236171       0.0460173   0.177677
  7717.46       0.255763       0.455763       0.255763       0.255763       0.0582433  -0.142412
  7717.71       0.268433       0.468433       0.268433       0.268433       0.0851057   0.12777
  7717.96       0.289191       0.48919       0.28919       0.28919       0.104981       0.0643803
  7718.21       0.31329       0.51329       0.31329       0.31329       0.078043  -0.134291
  7718.44       0.328297       0.528297       0.328297       0.328297       0.101387       0.145019
  7718.69       0.353342       0.553342       0.353342       0.353342       0.091049   0.0231071
  7718.94       0.378796       0.578796       0.378796       0.378796       0.113039       0.172328
  7719.17       0.413133       0.613133       0.413133       0.413133       0.122215      -0.0572309
  7719.42       0.446925       0.646925       0.446925       0.446925       0.152657      -0.0040163
  7719.67       0.479679       0.679679       0.479679       0.479679       0.155936       0.04049
  7719.9       0.513376       0.713376       0.513376       0.513376       0.15979       0.267573
  7720.15       0.566307       0.766307       0.566307       0.566307       0.207272      -0.146693
  7720.4       0.60884       0.80884       0.60884       0.60884       0.183131      -0.0504661
  7720.65       0.649295       0.849295       0.649295       0.649295       0.173393       0.222144
  7720.88       0.70009       0.90009       0.70009       0.70009       0.212999       0.0645101
  7721.13       0.75951       0.95951       0.75951       0.75951       0.184561      -0.164393
  7721.38       0.807637        1.00764       0.807637       0.807637       0.25398       0.25902
  7721.61       0.868549        2.27667       0.86866        2.07678       0.230013      -0.206197
  7721.86       0.921327        2.24342       0.921824        2.04391       0.288846       0.0291636
  7722.1       0.97404        2.21178       0.97491        2.01265       0.144104       0.0553907
  7722.36        1.03291        2.17916        1.03417        1.98042       0.222009      -0.195826
  7722.59        1.07574        2.1495        1.07736        1.95112       0.175861      -0.243836
  7722.85        1.10673        2.11812        1.10874        1.92014       0.119912       0.20204
  7723.05        1.14153        2.09313        1.14386        1.89546       0.173994      -0.119054
  7723.41        1.19103        2.05072        1.1939        1.8536       0.125396      -0.0109216
  7723.8        1.24428        2.00495        1.24776        1.80844       0.106532      -0.163938
  7724.2        1.27217        1.96009        1.27627        1.76419       0.0275471  -0.150617
  7724.59        1.27627        1.91701        1.28098        1.72172       0.0221953  -0.0690045
  7725.01        1.26933        1.87294        1.27468        1.67829      -0.034814  -0.0258921
  7726.51        1.20806        1.72588        1.21572        1.53355      -0.0494988  -0.000595539
  7728.07        1.14287        1.59155        1.15294        1.40162      -0.0388798   0.00866269
  7729.59        1.09923        1.47724        1.11166        1.28966      -0.0102108   0.016405
  7731.15        1.09365        1.37725        1.10847        1.19207       0.00155781   0.00332169
  7732.68        1.09607        1.29368        1.11325        1.11086      -0.00915768  -0.00700944
  7734.21        1.08202        1.22372        1.10157        1.04327      -0.00241763  -0.00101868
  7735.77        1.06529        1.16554        1.08725       0.987504      -0.0152411   0.0048678
  7737.31        1.06052        1.11995        1.08485       0.944274      -0.00503896  -0.0106286
  7738.84        1.03064        1.08465        1.05734       0.911346      -0.016613   0.00544531
  7740.39        1.01352        1.05841        1.0426       0.887488      -0.0152664  -0.00629431
  7741.95       0.980966        1.04011        1.01246       0.871599      -0.0245559  -0.000376466
  7746.97       0.870321        1.02344       0.909551       0.862668      -0.0162688   0.00178612
  7751.94       0.805159        1.03977       0.85205       0.886664      -0.0115553   0.00105033
  7756.95       0.76571        1.0579       0.820336       0.912523      -0.000627778   0.00269781
  7761.95       0.793467        1.07251       0.855804       0.934845       0.00769767   0.00118118
  7766.97       0.851197        1.08392       0.921275       0.953995       0.0112462  -0.000100013
  7771.99       0.906464        1.09227       0.98429       0.970097       0.0111163  -0.00116406
  7777       0.932288        1.09776        1.01784       0.983317       0.0022832  -0.000712887
  7784.15       0.938185        1.10109        1.03477       0.997678      -0.0039695  -0.000529551
  7791.28       0.917129        1.09967        1.02472        1.00726       0.000504464   0.000239955
  7798.44       0.908319        1.09409        1.02695        1.01272      -0.00314579  -0.000347174
  7805.61       0.881653        1.08492        1.01136        1.01462      -0.0034938   0.000168175
  7812.81       0.863623        1.07275        1.00443        1.01355       0.000128068   7.09371e-06
  7819.99       0.845984        1.05824       0.997872        1.01013      -0.00377322  -2.80346e-05
  7827.22       0.826773        1.04189       0.989813        1.00493      -0.00430673   6.59129e-05
  7834.44       0.811027        1.02443       0.985198       0.998597       0.00104349  -7.94967e-05
  7841.69       0.791023        1.00636       0.976382       0.991717      -0.00187518   0.000864582
  7845.32       0.803795       0.997316       0.994754       0.988275       0.00351849   0.00148586