File: Dynamic XAS/Dynamic XAS Energy analyzed data/ESweep_0_5 Hz/Same Eo/Normalized Spectra/Ir0_5Hz_ReaddMean_VPhsCorrect_3_106_mV_.csv.nor
# XDI/1.0 Athena/0.9.26
# Element.edge:                  K
# Element.symbol:                Co
# Column.1:                      energy eV
# Column.2:                      norm
# Column.3:                      nbkg
# Column.4:                      flat
# Column.5:                      fbkg
# Column.6:                      nder
# Column.7:                      nsec
# Athena.e0:                     7721.54
# Athena.eshift:                 0
# Athena.rbkg:                   1.0
# Athena.importance:             1
# Athena.standard:               None
# Athena.bkg_kweight:            3
# Athena.edge_step:              1.19339
# Athena.fixed_step:             no
# Athena.pre_edge_range:         -82.964 -19.904
# Athena.pre_edge_line:          0.133731 + 0.0001973 * E
# Athena.normalization_range:    45 125.256
# Athena.post_edge_polynomial:   15.6358 - 0.00165578 * E + 0 * E^2 + 0 * E^3
# Athena.spline_range_energy:    0.000 125.180
# Athena.clamps:                 0 24
# Athena.spline_range_k:         0.000 5.732
# Athena.kweight:                2
# Athena.window:                 hanning
# Athena.phase_correction:       no
# Athena.k_range:                .4 5.35
# Athena.dk:                     .5
# Athena.r_range:                .4 5.1
# Athena.dr:                     .5
# Athena.window:                 hanning
# Athena.plot_multiplier:        1
# Athena.y_offset:               0.2
# ///
#------------------------
#   e         norm        nbkg        flat        fbkg        nder        nsec
  7600.07      -0.216573      -0.0165732  -0.216573      -0.216573       0.0124242  -0.000523505
  7624.56      -0.0478774   0.152123      -0.0478774  -0.0478774   0.0028986  -0.000209069
  7649.7      -0.0142868   0.185713      -0.0142868  -0.0142868  -0.000360234   9.65433e-05
  7674.73       0.0795774   0.279577       0.0795774   0.0795774   0.000229631  -0.000288473
  7700.01      -0.00890321   0.191097      -0.00890321  -0.00890321   0.000426965   0.00101261
  7700.72      -0.00201091   0.197989      -0.00201091  -0.00201091   0.00403982  -0.0239158
  7701.43      -0.00673942   0.193261      -0.00673942  -0.00673942   0.00186929   0.0184339
  7702.15      -0.00184518   0.198155      -0.00184518  -0.00184518  -0.00363282  -0.0193192
  7702.88      -0.00695933   0.193041      -0.00695933  -0.00695933  -0.0035432   0.0104889
  7703.6      -0.00655435   0.193446      -0.00655435  -0.00655435   0.0028725   0.00920096
  7704.32      -0.00135089   0.198649      -0.00135089  -0.00135089   0.00478363  -0.0114737
  7705.02      -0.00215204   0.197848      -0.00215204  -0.00215204  -0.00494043   2.9207e-05
  7705.75      -0.00297761   0.197022      -0.00297761  -0.00297761   0.018374   0.0369447
  7706.47       0.0157035   0.215704       0.0157035   0.0157035   0.028824   0.00884837
  7707.2       0.0390747   0.239075       0.0390747   0.0390747   0.0253415  -0.0208497
  7707.91       0.051369   0.251369       0.051369   0.051369   0.0046761  -0.0207761
  7708.65       0.0528881   0.252888       0.0528881   0.0528881  -0.00137717  -0.0131586
  7709.29       0.0482776   0.248278       0.0482776   0.0482776   0.00393581   0.0218573
  7709.9       0.0521156   0.252116       0.0521156   0.0521156  -0.00583022  -0.0310747
  7710.51       0.0442644   0.244264       0.0442644   0.0442644  -0.00843977   0.0203328
  7711.11       0.0440231   0.244023       0.0440231   0.0440231   0.0104019   0.0115239
  7711.73       0.0479889   0.247989       0.0479889   0.0479889  -0.00554915  -0.0113044
  7712.33       0.0476837   0.247684       0.0476837   0.0476837  -0.00668018   0.00691409
  7712.95       0.0500088   0.250009       0.0500088   0.0500088   0.0203491   0.0382621
  7713.54       0.0654311   0.265431       0.0654311   0.0654311   0.0465137   0.0585603
  7714.16       0.104402       0.304402       0.104402       0.104402       0.0746845   0.0108646
  7714.78       0.147064       0.347064       0.147064       0.147064       0.0454129  -0.0491853
  7715.39       0.171059       0.371059       0.171059       0.171059       0.0534683   0.00854393
  7715.97       0.197117       0.397117       0.197117       0.197117       0.0198689  -0.0435056
  7716.26       0.203952       0.403952       0.203952       0.203952       0.0337348   0.0472552
  7716.5       0.212497       0.412497       0.212497       0.212497       0.0781867   0.169277
  7716.73       0.230713       0.430713       0.230713       0.230713       0.0590688  -0.147546
  7716.99       0.241271       0.441271       0.241271       0.241271       0.0378019   0.0580299
  7717.23       0.254741       0.454741       0.254741       0.254741       0.0316075   0.0337115
  7717.46       0.269254       0.469254       0.269254       0.269254       0.0820862  -0.0320121
  7717.71       0.28305       0.48305       0.28305       0.28305       0.0856805   0.211902
  7717.96       0.310201       0.510201       0.310201       0.310201       0.0913747  -0.103347
  7718.21       0.33102       0.53102       0.33102       0.33102       0.0983646   0.0407874
  7718.44       0.353342       0.553342       0.353342       0.353342       0.0793987  -0.110131
  7718.69       0.370479       0.570479       0.370479       0.370479       0.105834       0.331299
  7718.94       0.405682       0.605682       0.405682       0.405682       0.106966      -0.0881993
  7719.17       0.434155       0.634155       0.434155       0.434155       0.123019       0.0506708
  7719.42       0.468186       0.668186       0.468186       0.468186       0.196223       0.088603
  7719.67       0.50655       0.70655       0.50655       0.50655       0.125632      -0.0168256
  7719.9       0.542199       0.742199       0.542199       0.542199       0.158792       0.161125
  7720.15       0.590606       0.790606       0.590606       0.590606       0.208542       0.0074035
  7720.4       0.637519       0.837519       0.637519       0.637519       0.184825      -0.0954775
  7720.65       0.67967       0.87967       0.67967       0.67967       0.173662       0.157551
  7720.88       0.728291       0.928291       0.728291       0.728291       0.2319      -0.00571665
  7721.13       0.780935       0.980935       0.780935       0.780935       0.178688      -0.0944195
  7721.38       0.826508        1.02651       0.826508       0.826508       0.226441       0.289057
  7721.61       0.886781        2.24867       0.886893        2.04879       0.246816      -0.175671
  7721.86       0.940735        2.21621       0.941235        2.01671       0.246805      -0.0951285
  7722.1       0.987668        2.18533       0.988543        1.98621       0.154025       0.0731922
  7722.36        1.04161        2.15348        1.04288        1.95475       0.211825      -0.127236
  7722.59        1.08396        2.12453        1.08559        1.92616       0.14694      -0.325715
  7722.85        1.10936        2.0939        1.11138        1.89593       0.112266       0.288709
  7723.05        1.14379        2.0695        1.14613        1.87185       0.15589      -0.176873
  7723.41        1.1874        2.0281        1.19029        1.831       0.11316       0.00514495
  7723.8        1.23659        1.98342        1.2401        1.78693       0.0999557  -0.172646
  7724.2        1.259        1.93963        1.26313        1.74375       0.0126301  -0.126035
  7724.59        1.26152        1.89757        1.26626        1.70231       0.0180847  -0.0497993
  7725.01        1.25604        1.85455        1.26143        1.65994      -0.0335981  -0.0286939
  7726.51        1.19613        1.71099        1.20384        1.5187      -0.0434798   0.00328655
  7728.07        1.14191        1.57985        1.15204        1.38998      -0.0353231   0.00301535
  7729.59        1.09584        1.46824        1.10834        1.28075      -0.0112525   0.018349
  7731.15        1.09238        1.37062        1.10729        1.18554      -0.00107049   0.00100435
  7732.68        1.09136        1.28903        1.10866        1.10632      -0.00891402  -0.00531967
  7734.21        1.07784        1.22072        1.09752        1.0404       0.000761811  -0.000584919
  7735.77        1.06269        1.16391        1.0848       0.986016      -0.0157468   0.00482489
  7737.31        1.05937        1.11938        1.08386       0.94387      -0.00600824  -0.0120515
  7738.84        1.02758        1.08491        1.05445       0.911778      -0.0183098   0.00647056
  7740.39        1.01097        1.05927        1.04024       0.888542      -0.0141093  -0.00677072
  7741.95       0.977782        1.04139        1.00948       0.873085      -0.0244413  -0.000120401
  7746.97       0.869333        1.02505       0.908819       0.86454      -0.0159248   0.00180305
  7751.94       0.806766        1.04095       0.853963       0.888143      -0.0106136   0.00100137
  7756.95       0.768708        1.05859       0.823691       0.913576      -0.000752076   0.00257339
  7761.95       0.794759        1.07282       0.857503       0.935563       0.00792572   0.00119161
  7766.97       0.851039        1.08392       0.921574       0.954456       0.0107757  -4.50667e-05
  7771.99       0.906234        1.09204       0.984567       0.970372       0.0105103  -0.00113952
  7777       0.932603        1.09735        1.01872       0.983464       0.00232736  -0.000746027
  7784.15       0.937838        1.10051        1.03506       0.997727      -0.00411985  -0.00055495
  7791.28       0.914831        1.09898        1.02313        1.00728       0.000775344   0.000257453
  7798.44       0.904961        1.09335        1.02436        1.01275      -0.00360179  -0.000257171
  7805.61       0.881853        1.08413        1.0124        1.01468      -0.0030958   0.000105733
  7812.81       0.864159        1.07189        1.00588        1.01362       0.000207554  -3.68231e-05
  7819.99       0.844592        1.05727       0.99747        1.01015      -0.00378845   1.57948e-05
  7827.22       0.825729        1.04072       0.989832        1.00482      -0.00439521   4.85065e-05
  7834.44       0.809425        1.02295       0.984733       0.998259       0.000918487  -4.11428e-05
  7841.69       0.790877        1.00444       0.977445       0.991003      -0.00190667   0.00077367
  7845.32       0.801981       0.995107       0.994186       0.987311       0.00305908   0.00136798