File: Dynamic XAS/Dynamic XAS Energy analyzed data/ESweep_0_5 Hz/Same Eo/Normalized Spectra/Ir0_5Hz_ReaddMean_VPhsCorrect_7_202_mV_.csv.nor
# XDI/1.0 Athena/0.9.26
# Element.edge:                  K
# Element.symbol:                Co
# Column.1:                      energy eV
# Column.2:                      norm
# Column.3:                      nbkg
# Column.4:                      flat
# Column.5:                      fbkg
# Column.6:                      nder
# Column.7:                      nsec
# Athena.e0:                     7721.54
# Athena.eshift:                 0
# Athena.rbkg:                   1.0
# Athena.importance:             1
# Athena.standard:               None
# Athena.bkg_kweight:            3
# Athena.edge_step:              1.19308
# Athena.fixed_step:             no
# Athena.pre_edge_range:         -82.964 -19.904
# Athena.pre_edge_line:          0.256586 + 0.000181271 * E
# Athena.normalization_range:    45 125.256
# Athena.post_edge_polynomial:   15.5511 - 0.00164498 * E + 0 * E^2 + 0 * E^3
# Athena.spline_range_energy:    0.000 125.180
# Athena.clamps:                 0 24
# Athena.spline_range_k:         0.000 5.732
# Athena.kweight:                2
# Athena.window:                 hanning
# Athena.phase_correction:       no
# Athena.k_range:                .4 5.35
# Athena.dk:                     .5
# Athena.r_range:                .4 5.1
# Athena.dr:                     .5
# Athena.window:                 hanning
# Athena.plot_multiplier:        1
# Athena.y_offset:               0.2
# ///
#------------------------
#   e         norm        nbkg        flat        fbkg        nder        nsec
  7600.07      -0.216104      -0.0161035  -0.216104      -0.216104       0.0123156  -0.000515931
  7624.56      -0.0481053   0.151895      -0.0481053  -0.0481053   0.00296228  -0.000208724
  7649.7      -0.0150006   0.184999      -0.0150006  -0.0150006  -0.000390044   9.51817e-05
  7674.73       0.0775276   0.277528       0.0775276   0.0775276   0.000264727  -0.000283411
  7700.01      -0.00908602   0.190914      -0.00908602  -0.00908602   0.000350434   0.00102813
  7700.72      -0.00199765   0.198002      -0.00199765  -0.00199765   0.00424996  -0.0248589
  7701.43      -0.00698902   0.193011      -0.00698902  -0.00698902   0.00188984   0.0193594
  7702.15      -0.0018747   0.198125      -0.0018747  -0.0018747  -0.0040179  -0.0194997
  7702.88      -0.00686157   0.193138      -0.00686157  -0.00686157  -0.00287711   0.00916423
  7703.6      -0.00702419   0.192976      -0.00702419  -0.00702419   0.00350969   0.0107615
  7704.32      -0.001578   0.198422      -0.001578  -0.001578   0.00478337  -0.012046
  7705.02      -0.00243523   0.197565      -0.00243523  -0.00243523  -0.00548938   0.00240613
  7705.75      -0.00211708   0.197883      -0.00211708  -0.00211708   0.0168936   0.031902
  7706.47       0.0150353   0.215035       0.0150353   0.0150353   0.0296358   0.0122901
  7707.2       0.0386655   0.238666       0.0386655   0.0386655   0.0256654  -0.0213573
  7707.91       0.0509518   0.250952       0.0509518   0.0509518   0.00464376  -0.0179237
  7708.65       0.0539702   0.25397       0.0539702   0.0539702  -0.000215729  -0.0158662
  7709.29       0.0494564   0.249456       0.0494564   0.0494564   0.00245185   0.0205333
  7709.9       0.0528883   0.252888       0.0528883   0.0528883  -0.00463926  -0.028
  7710.51       0.0457876   0.245788       0.0457876   0.0457876  -0.00967842   0.0128117
  7711.11       0.0435419   0.243542       0.0435419   0.0435419   0.00860478   0.0182053
  7711.73       0.0478702   0.24787       0.0478702   0.0478702  -0.00494796  -0.0162346
  7712.33       0.0460846   0.246085       0.0460846   0.0460846  -0.00955796   0.0105247
  7712.95       0.0482768   0.248277       0.0482768   0.0482768   0.0214998   0.0384968
  7713.54       0.063655   0.263655       0.063655   0.063655   0.0433512   0.0567848
  7714.16       0.101895       0.301895       0.101895       0.101895       0.0722622   0.00214109
  7714.78       0.140519       0.340519       0.140519       0.140519       0.0497016  -0.0340337
  7715.39       0.166124       0.366124       0.166124       0.166124       0.0485214  -0.000149566
  7715.97       0.190709       0.390709       0.190709       0.190709       0.0265868  -0.036847
  7716.26       0.197712       0.397712       0.197712       0.197712       0.0162966   0.0699552
  7716.5       0.207676       0.407676       0.207676       0.207676       0.0777251   0.105671
  7716.73       0.223488       0.423488       0.223488       0.223488       0.0574623  -0.0581342
  7716.99       0.237057       0.437057       0.237057       0.237057       0.0419427  -0.0380462
  7717.23       0.247913       0.447913       0.247913       0.247913       0.0398611   0.119808
  7717.46       0.264891       0.464891       0.264891       0.264891       0.069957  -0.157191
  7717.71       0.273845       0.473845       0.273845       0.273845       0.0848471   0.311211
  7717.96       0.302321       0.502321       0.302321       0.302321       0.0837666  -0.127977
  7718.21       0.323037       0.523037       0.323037       0.323037       0.109157       0.0328998
  7718.44       0.344791       0.544791       0.344791       0.344791       0.06078  -0.0863065
  7718.69       0.36279       0.56279       0.36279       0.36279       0.104923       0.261014
  7718.94       0.394861       0.594861       0.394861       0.394861       0.10817       0.0163621
  7719.17       0.426434       0.626434       0.426434       0.426434       0.132049      -0.0660162
  7719.42       0.456685       0.656685       0.456685       0.456685       0.186473       0.154374
  7719.67       0.495178       0.695178       0.495178       0.495178       0.124226       0.0166357
  7719.9       0.53294       0.73294       0.53294       0.53294       0.155974       0.0988054
  7720.15       0.579743       0.779743       0.579743       0.579743       0.224016       0.0212567
  7720.4       0.625899       0.825899       0.625899       0.625899       0.166767      -0.0805235
  7720.65       0.668203       0.868203       0.668203       0.668203       0.171235       0.196431
  7720.88       0.719231       0.919231       0.719231       0.719231       0.236976      -0.119969
  7721.13       0.767331       0.967331       0.767331       0.767331       0.194066       0.0052771
  7721.38       0.814218        1.01422       0.814218       0.814218       0.212922       0.268531
  7721.61       0.87452        2.2626       0.874631        2.06271       0.257436      -0.073401
  7721.86       0.934745        2.22978       0.935237        2.03027       0.258618      -0.136736
  7722.1       0.985431        2.19855       0.986294        1.99941       0.156867      -0.0244872
  7722.36        1.03706        2.16635        1.03832        1.9676       0.218584      -0.0132608
  7722.59        1.08404        2.13708        1.08566        1.93869       0.15156      -0.447686
  7722.85        1.10688        2.10611        1.10887        1.90811       0.121785       0.412723
  7723.05        1.14517        2.08144        1.14749        1.88375       0.16266      -0.238583
  7723.41        1.18989        2.03958        1.19275        1.84244       0.119545       0.00238695
  7723.8        1.2399        1.99441        1.24336        1.79787       0.100751      -0.163484
  7724.2        1.26457        1.95013        1.26864        1.7542       0.0224017  -0.138391
  7724.59        1.26741        1.90761        1.27208        1.71228       0.0139386  -0.0325198
  7725.01        1.26509        1.86411        1.2704        1.66942      -0.0315887  -0.0375338
  7726.51        1.20418        1.71896        1.21178        1.52657      -0.0469318   0.000658853
  7728.07        1.14245        1.58637        1.15244        1.39636      -0.0360536   0.00693183
  7729.59        1.09816        1.47353        1.11049        1.28586      -0.0107836   0.0171868
  7731.15        1.09377        1.37484        1.10848        1.18954      -0.00119947   0.00294135
  7732.68        1.09645        1.29234        1.1135        1.10939      -0.00742878  -0.00681781
  7734.21        1.08312        1.22328        1.10252        1.04268      -0.000935988  -0.00259731
  7735.77        1.06334        1.16585        1.08513       0.987635      -0.0169215   0.00662216
  7737.31        1.05978        1.12083        1.08392       0.944965      -0.00491184  -0.01135
  7738.84        1.0294        1.08598        1.05589       0.912462      -0.0167345   0.00642042
  7740.39        1.01409        1.06006        1.04294       0.888912      -0.0151949  -0.00812172
  7741.95       0.978959        1.04198        1.0102       0.873228      -0.0245699   0.00027536
  7746.97       0.870807        1.02548       0.909731       0.864407      -0.0156673   0.0017986
  7751.94       0.808423        1.04157       0.854949       0.888094      -0.0112042   0.000935369
  7756.95       0.768895        1.05943       0.823096       0.913631      -0.000762274   0.00263696
  7761.95       0.795062        1.07384       0.856913       0.935689       0.00774467   0.00113211
  7766.97       0.849953        1.08509       0.919485       0.954625       0.0111305   0.000131537
  7771.99       0.908188        1.09334       0.985407       0.970557       0.0104712  -0.00130922
  7777       0.933316        1.09876        1.0182       0.983647       0.00219807  -0.000670256
  7784.15       0.940072        1.10204        1.03591       0.997878      -0.00382855  -0.00056445
  7791.28       0.918098        1.10063        1.02485        1.00738       0.000780162   0.000240373
  7798.44       0.908388        1.09509        1.02609        1.01279      -0.00345193  -0.000316859
  7805.61       0.882377        1.08598        1.01107        1.01467      -0.00328805   0.000178938
  7812.81       0.865559        1.07387        1.00526        1.01358       0.000158672  -5.00846e-05
  7819.99       0.846182        1.05941       0.996885        1.01011      -0.00376114   4.35351e-05
  7827.22       0.82896        1.04307       0.990729        1.00483      -0.00439685   9.99432e-06
  7834.44       0.812291        1.02557       0.985104       0.998379       0.000966184  -4.46956e-05
  7841.69       0.793188        1.00739       0.977101       0.991305      -0.00175366   0.000816113
  7845.32       0.805134       0.998265       0.994603       0.987735       0.0032908   0.00138966