File: Dynamic XAS/Dynamic XAS Energy analyzed data/ESweep_0_5 Hz/Same Eo/Normalized Spectra/Ir0_5Hz_ReaddMean_VPhsCorrect_30_-159_mV_.csv.nor
# XDI/1.0 Athena/0.9.26
# Element.edge:                  K
# Element.symbol:                Co
# Column.1:                      energy eV
# Column.2:                      norm
# Column.3:                      nbkg
# Column.4:                      flat
# Column.5:                      fbkg
# Column.6:                      nder
# Column.7:                      nsec
# Athena.e0:                     7721.54
# Athena.eshift:                 0
# Athena.rbkg:                   1.0
# Athena.importance:             1
# Athena.standard:               None
# Athena.bkg_kweight:            3
# Athena.edge_step:              1.19315
# Athena.fixed_step:             no
# Athena.pre_edge_range:         -82.964 -19.904
# Athena.pre_edge_line:          0.117912 + 0.000199265 * E
# Athena.normalization_range:    45 125.256
# Athena.post_edge_polynomial:   15.5628 - 0.00164644 * E + 0 * E^2 + 0 * E^3
# Athena.spline_range_energy:    0.000 125.180
# Athena.clamps:                 0 24
# Athena.spline_range_k:         0.000 5.732
# Athena.kweight:                2
# Athena.window:                 hanning
# Athena.phase_correction:       no
# Athena.k_range:                .4 5.35
# Athena.dk:                     .5
# Athena.r_range:                .4 5.1
# Athena.dr:                     .5
# Athena.window:                 hanning
# Athena.plot_multiplier:        1
# Athena.y_offset:               0.2
# ///
#------------------------
#   e         norm        nbkg        flat        fbkg        nder        nsec
  7600.07      -0.21276      -0.01276  -0.21276      -0.21276       0.0120768  -0.00050434
  7624.56      -0.0476093   0.152391      -0.0476093  -0.0476093   0.00291065  -0.000204479
  7649.7      -0.0145934   0.185407      -0.0145934  -0.0145934  -0.000353713   9.55004e-05
  7674.73       0.0780458   0.278046       0.0780458   0.0780458   0.0002131  -0.000283609
  7700.01      -0.00858137   0.191419      -0.00858137  -0.00858137   0.00038401   0.000909106
  7700.72      -0.00259522   0.197405      -0.00259522  -0.00259522   0.00557602  -0.0201048
  7701.43      -0.00637648   0.193624      -0.00637648  -0.00637648   0.00105889   0.015249
  7702.15      -0.00219645   0.197804      -0.00219645  -0.00219645  -0.00436859  -0.0144649
  7702.88      -0.00550787   0.194492      -0.00550787  -0.00550787  -0.000929327   0.00253741
  7703.6      -0.00747555   0.192524      -0.00747555  -0.00747555   0.00227299   0.0163971
  7704.32      -0.000906758   0.199093      -0.000906758  -0.000906758   0.00299589  -0.0158989
  7705.02      -0.00263188   0.197368      -0.00263188  -0.00263188  -0.00350511   0.00422176
  7705.75      -0.00230551   0.197694      -0.00230551  -0.00230551   0.0172802   0.0350883
  7706.47       0.0165367   0.216537       0.0165367   0.0165367   0.0291682   0.00700066
  7707.2       0.0391065   0.239106       0.0391065   0.0391065   0.0258322  -0.01838
  7707.91       0.0518952   0.251895       0.0518952   0.0518952   0.00337499  -0.0210886
  7708.65       0.0537518   0.253752       0.0537518   0.0537518   0.00142758  -0.0140056
  7709.29       0.0490557   0.249056       0.0490557   0.0490557   0.00176285   0.0212167
  7709.9       0.0525712   0.252571       0.0525712   0.0525712  -0.00599131  -0.0286707
  7710.51       0.0453017   0.245302       0.0453017   0.0453017  -0.0063459   0.0161285
  7711.11       0.0440977   0.244098       0.0440977   0.0440977   0.00824364   0.0119596
  7711.73       0.0472228   0.247223       0.0472228   0.0472228  -0.00633673  -0.00608125
  7712.33       0.0480358   0.248036       0.0480358   0.0480358  -0.00615705  -0.00186047
  7712.95       0.0481555   0.248156       0.0481555   0.0481555   0.0187203   0.0439139
  7713.54       0.063451   0.263451       0.063451   0.063451   0.0465063   0.0625025
  7714.16       0.103804       0.303804       0.103804       0.103804       0.0734553   0.00186713
  7714.78       0.144414       0.344414       0.144414       0.144414       0.047074  -0.0381402
  7715.39       0.170463       0.370463       0.170463       0.170463       0.0494408  -0.00323115
  7715.97       0.194406       0.394406       0.194406       0.194406       0.0246294  -0.0367115
  7716.26       0.201117       0.401117       0.201117       0.201117       0.0310382   0.0923035
  7716.5       0.212083       0.412083       0.212083       0.212083       0.0741789   0.0733583
  7716.73       0.226942       0.426942       0.226942       0.226942       0.0582677  -0.0755817
  7716.99       0.238375       0.438375       0.238375       0.238375       0.0447913   0.0580942
  7717.23       0.25269       0.45269       0.25269       0.25269       0.0250282   0.0330115
  7717.46       0.267952       0.467952       0.267952       0.267952       0.0789829  -0.0941918
  7717.71       0.278828       0.478828       0.278828       0.278828       0.0864776   0.301425
  7717.96       0.30863       0.50863       0.30863       0.30863       0.0868716  -0.176819
  7718.21       0.327864       0.527864       0.327864       0.327864       0.102797       0.064753
  7718.44       0.350104       0.550104       0.350104       0.350104       0.0663155  -0.0819141
  7718.69       0.368894       0.568894       0.368894       0.368894       0.11785       0.254715
  7718.94       0.401374       0.601374       0.401374       0.401374       0.105544      -0.0290045
  7719.17       0.430694       0.630694       0.430694       0.430694       0.129263      -0.00975475
  7719.42       0.461944       0.661944       0.461944       0.461944       0.188483       0.153446
  7719.67       0.501359       0.701359       0.501359       0.501359       0.118961      -0.0622408
  7719.9       0.535311       0.735311       0.535311       0.535311       0.158732       0.208086
  7720.15       0.584814       0.784814       0.584814       0.584814       0.223619       0.0525508
  7720.4       0.635336       0.835336       0.635336       0.635336       0.169324      -0.196897
  7720.65       0.674897       0.874897       0.674897       0.674897       0.172156       0.177739
  7720.88       0.72227       0.92227       0.72227       0.72227       0.239162       0.000189348
  7721.13       0.773924       0.973924       0.773924       0.773924       0.177897      -0.0334498
  7721.38       0.822034        1.02203       0.822034       0.822034       0.225415       0.240382
  7721.61       0.881828        2.25268       0.88194        2.05279       0.256639      -0.144399
  7721.86       0.937177        2.22013       0.937675        2.02063       0.244651      -0.0600184
  7722.1       0.987413        2.18918       0.988286        1.99005       0.165608       0.00215692
  7722.36        1.04028        2.15725        1.04154        1.95851       0.207983      -0.0884698
  7722.59        1.08393        2.12822        1.08556        1.92985       0.148347      -0.355168
  7722.85        1.10891        2.09752        1.11093        1.89954       0.113735       0.326465
  7723.05        1.14481        2.07306        1.14715        1.8754       0.169164      -0.211453
  7723.41        1.18784        2.03156        1.19072        1.83445       0.108842       0.0084308
  7723.8        1.23689        1.98677        1.24038        1.79027       0.10143      -0.15806
  7724.2        1.26146        1.94286        1.26557        1.74697       0.018953  -0.143979
  7724.59        1.26333        1.9007        1.26805        1.70542       0.00947893  -0.0270432
  7725.01        1.26087        1.85758        1.26624        1.66294      -0.0334204  -0.0358012
  7726.51        1.2019        1.71366        1.20959        1.52134      -0.0433521   1.30259e-05
  7728.07        1.14061        1.58218        1.1507        1.39228      -0.0354796   0.0072879
  7729.59        1.09757        1.47029        1.11003        1.28275      -0.0102422   0.0169067
  7731.15        1.09379        1.37242        1.10866        1.18728      -0.00258138   0.00178763
  7732.68        1.09433        1.29061        1.11156        1.10784      -0.00862842  -0.00609812
  7734.21        1.08054        1.22212        1.10014        1.04173       0.000353423  -0.00204745
  7735.77        1.06161        1.16516        1.08363       0.987177      -0.0165063   0.00709772
  7737.31        1.06002        1.1205        1.08441       0.944895      -0.0050561  -0.0122159
  7738.84        1.02957        1.08592        1.05634       0.912692      -0.0178293   0.0052375
  7740.39        1.01138        1.06021        1.04054       0.889364      -0.0146827  -0.00517477
  7741.95       0.980458        1.04226        1.01203       0.873833      -0.0233903  -0.000639676
  7746.97       0.870687        1.02581       0.910024       0.865147      -0.0164246   0.00185283
  7751.94       0.808047        1.04166       0.855065       0.888683      -0.0106159   0.00093649
  7756.95       0.768288        1.05928       0.823063       0.914051      -0.000599829   0.00266193
  7761.95       0.794846        1.07346       0.857353       0.935965       0.00740696   0.00118417
  7766.97       0.851447        1.08451       0.921716       0.954779       0.0107535  -4.08645e-05
  7771.99       0.907067        1.09258       0.985105       0.970613       0.010779  -0.00115489
  7777       0.933475        1.09784        1.01926       0.983624       0.00219726  -0.000717206
  7784.15       0.940016        1.10092        1.03687       0.997774      -0.00388254  -0.000630574
  7791.28       0.914466        1.09934        1.02235        1.00723       0.000687292   0.000338932
  7798.44       0.906223        1.09367        1.02518        1.01262      -0.00354953  -0.000298453
  7805.61       0.882629        1.08445        1.01268        1.0145      -0.00314837   0.000101686
  7812.81       0.864238        1.07224        1.00542        1.01343      -4.11664e-05  -2.68807e-05
  7819.99       0.844487        1.0577       0.996788        1.01      -0.00356665   3.97188e-05
  7827.22       0.82669        1.04128       0.990173        1.00476      -0.00434043   4.35361e-05
  7834.44       0.811191        1.0237       0.985835       0.998347       0.000981267  -8.31915e-05
  7841.69       0.791241        1.00545       0.977104       0.991314      -0.0019435   0.000818205
  7845.32       0.802818       0.996284       0.994296       0.987762       0.00318921   0.00141397