File: Dynamic XAS Energy analyzed data/ESweep_0_5 Hz/Same Eo/Normalized Spectra/Ir0_5Hz_ReaddMean_VPhsCorrect_26_-47_mV_.csv.nor
# XDI/1.0 Athena/0.9.26
# Element.edge:                  K
# Element.symbol:                Co
# Column.1:                      energy eV
# Column.2:                      norm
# Column.3:                      nbkg
# Column.4:                      flat
# Column.5:                      fbkg
# Column.6:                      nder
# Column.7:                      nsec
# Athena.e0:                     7721.54
# Athena.eshift:                 0
# Athena.rbkg:                   1.0
# Athena.importance:             1
# Athena.standard:               None
# Athena.bkg_kweight:            3
# Athena.edge_step:              1.19381
# Athena.fixed_step:             no
# Athena.pre_edge_range:         -82.964 -19.904
# Athena.pre_edge_line:          0.185611 + 0.000190478 * E
# Athena.normalization_range:    45 125.256
# Athena.post_edge_polynomial:   15.6156 - 0.00165322 * E + 0 * E^2 + 0 * E^3
# Athena.spline_range_energy:    0.000 125.180
# Athena.clamps:                 0 24
# Athena.spline_range_k:         0.000 5.732
# Athena.kweight:                2
# Athena.window:                 hanning
# Athena.phase_correction:       no
# Athena.k_range:                .4 5.35
# Athena.dk:                     .5
# Athena.r_range:                .4 5.1
# Athena.dr:                     .5
# Athena.window:                 hanning
# Athena.plot_multiplier:        1
# Athena.y_offset:               0.2
# ///
#------------------------
#   e         norm        nbkg        flat        fbkg        nder        nsec
  7600.07      -0.214182      -0.0141815  -0.214182      -0.214182       0.0120992  -0.000502736
  7624.56      -0.0480663   0.151934      -0.0480663  -0.0480663   0.00297968  -0.000206118
  7649.7      -0.0151548   0.184845      -0.0151548  -0.0151548  -0.000363783   9.45966e-05
  7674.73       0.076815   0.276815       0.076815   0.076815   0.000208708  -0.000281007
  7700.01      -0.0088353   0.191165      -0.0088353  -0.0088353   0.000433168   0.000973634
  7700.72      -0.00222439   0.197776      -0.00222439  -0.00222439   0.0031245  -0.021885
  7701.43      -0.00624496   0.193755      -0.00624496  -0.00624496   0.00212308   0.0164498
  7702.15      -0.00167682   0.198323      -0.00167682  -0.00167682  -0.00378401  -0.0181353
  7702.88      -0.00650386   0.193496      -0.00650386  -0.00650386  -0.00271948   0.00704815
  7703.6      -0.00761648   0.192384      -0.00761648  -0.00761648   0.0028806   0.0146312
  7704.32      -0.0011084   0.198892      -0.0011084  -0.0011084   0.00334929  -0.0145299
  7705.02      -0.00220098   0.197799      -0.00220098  -0.00220098  -0.00355342   0.0017249
  7705.75      -0.00247433   0.197526      -0.00247433  -0.00247433   0.0161096   0.0328248
  7706.47       0.0145793   0.214579       0.0145793   0.0145793   0.0294673   0.0138962
  7707.2       0.0389475   0.238948       0.0389475   0.0389475   0.0265686  -0.0231679
  7707.91       0.0510206   0.251021       0.0510206   0.0510206   0.00527014  -0.0167994
  7708.65       0.0544165   0.254416       0.0544165   0.0544165   0.000382176  -0.0181956
  7709.29       0.0491822   0.249182       0.0491822   0.0491822   0.00204487   0.02577
  7709.9       0.0538992   0.253899       0.0538992   0.0538992  -0.00705054  -0.0355057
  7710.51       0.045259   0.245259       0.045259   0.045259  -0.00841918   0.0162678
  7711.11       0.042773   0.242773       0.042773   0.042773   0.00593224   0.0144541
  7711.73       0.0454793   0.245479       0.0454793   0.0454793  -0.00510174  -0.00804253
  7712.33       0.0451486   0.245149       0.0451486   0.0451486  -0.00692022   0.00361763
  7712.95       0.0461907   0.246191       0.0461907   0.0461907   0.0162214   0.0383263
  7713.54       0.0604248   0.260425       0.0604248   0.0604248   0.0455757   0.058947
  7714.16       0.098279   0.298279       0.098279   0.098279   0.0766701   0.0135427
  7714.78       0.140855       0.340855       0.140855       0.140855       0.0439345  -0.0449478
  7715.39       0.166332       0.366332       0.166332       0.166332       0.0507192  -0.000348751
  7715.97       0.190725       0.390725       0.190725       0.190725       0.019808  -0.042796
  7716.26       0.196849       0.396849       0.196849       0.196849       0.0277218   0.0595386
  7716.5       0.205471       0.405471       0.205471       0.205471       0.0829386   0.177396
  7716.73       0.224242       0.424242       0.224242       0.224242       0.0525907  -0.238728
  7716.99       0.22966       0.42966       0.22966       0.22966       0.0322144   0.155719
  7717.23       0.243794       0.443794       0.243794       0.243794       0.0367787   0.0655302
  7717.46       0.260741       0.460741       0.260741       0.260741       0.0663126  -0.129747
  7717.71       0.271308       0.471308       0.271308       0.271308       0.0799842   0.249473
  7717.96       0.297552       0.497552       0.297552       0.297552       0.109782      -0.0782364
  7718.21       0.318911       0.518911       0.318911       0.318911       0.0804451  -0.0378184
  7718.44       0.337057       0.537057       0.337057       0.337057       0.0835158   0.0503069
  7718.69       0.359622       0.559622       0.359622       0.359622       0.11132       0.162316
  7718.94       0.390532       0.590532       0.390532       0.390532       0.0971875  -0.0170551
  7719.17       0.41905       0.61905       0.41905       0.41905       0.131217       0.0442703
  7719.42       0.452736       0.652736       0.452736       0.452736       0.172637       0.111284
  7719.67       0.492082       0.692082       0.492082       0.492082       0.146471      -0.123977
  7719.9       0.522297       0.722297       0.522297       0.522297       0.148729       0.335556
  7720.15       0.575711       0.775711       0.575711       0.575711       0.211897      -0.0782112
  7720.4       0.622585       0.822585       0.622585       0.622585       0.186249      -0.1313
  7720.65       0.662476       0.862476       0.662476       0.662476       0.167436       0.16732
  7720.88       0.709551       0.909551       0.709551       0.709551       0.239445       0.0778449
  7721.13       0.765751       0.965751       0.765751       0.765751       0.159384      -0.139225
  7721.38       0.812202        1.0122       0.812202       0.812202       0.243234       0.308207
  7721.61       0.874438        2.27123       0.874549        2.07134       0.244978      -0.19759
  7721.86       0.929162        2.23812       0.929659        2.03862       0.264604      -0.0834745
  7722.1       0.977489        2.20663       0.97836        2.0075       0.156327       0.0896075
  7722.36        1.03395        2.17415        1.03521        1.97541       0.224599      -0.153927
  7722.59        1.07703        2.14462        1.07866        1.94625       0.158648      -0.26366
  7722.85        1.10707        2.11339        1.10909        1.91541       0.1172       0.243086
  7723.05        1.14307        2.0885        1.14541        1.89084       0.173624      -0.170357
  7723.41        1.19        2.04629        1.19288        1.84917       0.119573      -0.0082213
  7723.8        1.24081        2.00072        1.2443        1.80421       0.102706      -0.152598
  7724.2        1.26803        1.95606        1.27214        1.76017       0.0214411  -0.153109
  7724.59        1.27109        1.91318        1.2758        1.71789       0.0145465  -0.0583054
  7725.01        1.26479        1.86931        1.27014        1.67466      -0.0320053  -0.0274368
  7726.51        1.20366        1.72292        1.21133        1.53059      -0.0466921   0.00106824
  7728.07        1.14271        1.5892        1.15279        1.39928      -0.0384283   0.00578363
  7729.59        1.09651        1.47541        1.10895        1.28785      -0.00893617   0.01845
  7731.15        1.09316        1.3759        1.108        1.19073      -0.00153516   0.00251765
  7732.68        1.09586        1.29272        1.11306        1.10993      -0.00776725  -0.00720112
  7734.21        1.08164        1.22311        1.10122        1.04268      -0.000970551  -0.00155
  7735.77        1.06347        1.16522        1.08546       0.987203      -0.0157481   0.00650567
  7737.31        1.06122        1.11986        1.08557       0.94421      -0.00559929  -0.0125832
  7738.84        1.02923        1.08475        1.05595       0.911473      -0.0176349   0.00681932
  7740.39        1.01325        1.05866        1.04236       0.887767      -0.0147406  -0.00688242
  7741.95       0.980432        1.04047        1.01196       0.871995      -0.0244039  -0.000212647
  7746.97       0.87165        1.02397       0.910922       0.863244      -0.0160299   0.00165478
  7751.94       0.80507        1.04031       0.852011       0.887252      -0.011136   0.00113217
  7756.95       0.766241        1.0584       0.820926       0.913081      -0.000961138   0.00267444
  7761.95       0.794036        1.07295       0.85644       0.935356       0.00771938   0.00113855
  7766.97       0.850726        1.08429       0.92088       0.954447       0.0110137  -9.44663e-05
  7771.99       0.905092        1.09257       0.983001       0.97048       0.0113617  -0.00109072
  7777       0.931863        1.09798        1.01751       0.983623       0.00215426  -0.000706647
  7784.15       0.939383        1.10118        1.03607       0.99787      -0.00404034  -0.000582289
  7791.28       0.917264        1.09963        1.02497        1.00734       0.000557532   0.000228809
  7798.44       0.906815        1.09394        1.02557        1.0127      -0.00333746  -0.000278343
  7805.61       0.88204        1.08468        1.01188        1.01452      -0.003318   0.000137982
  7812.81       0.864343        1.07245        1.0053        1.01341       7.77972e-06  -4.63326e-05
  7819.99       0.844281        1.05792       0.996332        1.00997      -0.00361896   5.58909e-05
  7827.22       0.827016        1.0416       0.99023        1.00481      -0.00431413   1.69207e-05
  7834.44       0.810664        1.02423       0.985021       0.998583       0.000764802  -5.2511e-05
  7841.69       0.791468        1.00632       0.977025       0.991876      -0.00159226   0.000846962
  7845.32       0.804181       0.997387       0.995344       0.98855       0.00350204   0.00140339