File: Dynamic XAS Energy analyzed data/ESweep_0_5 Hz/Same Eo/Normalized Spectra/Ir0_5Hz_ReaddMean_VPhsCorrect_0_16_mV_.csv.nor
# XDI/1.0 Athena/0.9.26
# Element.edge:                  K
# Element.symbol:                Co
# Column.1:                      energy eV
# Column.2:                      norm
# Column.3:                      nbkg
# Column.4:                      flat
# Column.5:                      fbkg
# Column.6:                      nder
# Column.7:                      nsec
# Athena.e0:                     7721.54
# Athena.eshift:                 0
# Athena.rbkg:                   1.0
# Athena.importance:             1
# Athena.standard:               None
# Athena.bkg_kweight:            3
# Athena.edge_step:              1.19411
# Athena.fixed_step:             no
# Athena.pre_edge_range:         -82.964 -19.904
# Athena.pre_edge_line:          0.077387 + 0.000204578 * E
# Athena.normalization_range:    45 125.256
# Athena.post_edge_polynomial:   15.6379 - 0.00165598 * E + 0 * E^2 + 0 * E^3
# Athena.spline_range_energy:    0.000 125.180
# Athena.clamps:                 0 24
# Athena.spline_range_k:         0.000 5.732
# Athena.kweight:                2
# Athena.window:                 hanning
# Athena.phase_correction:       no
# Athena.k_range:                .4 5.35
# Athena.dk:                     .5
# Athena.r_range:                .4 5.1
# Athena.dr:                     .5
# Athena.window:                 hanning
# Athena.plot_multiplier:        1
# Athena.y_offset:               0.2
# ///
#------------------------
#   e         norm        nbkg        flat        fbkg        nder        nsec
  7600.07      -0.219981      -0.0199811  -0.219981      -0.219981       0.0130264  -0.000566769
  7624.56      -0.0477408   0.152259      -0.0477408  -0.0477408   0.00281332  -0.000215669
  7649.7      -0.0149188   0.185081      -0.0149188  -0.0149188  -0.000431123   0.000100059
  7674.73       0.0803801   0.28038       0.0803801   0.0803801   0.000301115  -0.000292551
  7700.01      -0.00924244   0.190758      -0.00924244  -0.00924244   0.00032006   0.00105823
  7700.72      -0.00195982   0.19804      -0.00195982  -0.00195982   0.00492594  -0.0241049
  7701.43      -0.00638706   0.193613      -0.00638706  -0.00638706   0.00221   0.0165634
  7702.15      -0.00216948   0.197831      -0.00216948  -0.00216948  -0.00439762  -0.0166448
  7702.88      -0.00657481   0.193425      -0.00657481  -0.00657481  -0.00310463   0.00875788
  7703.6      -0.0063713   0.193629      -0.0063713  -0.0063713   0.00220169   0.0110418
  7704.32      -0.000410814   0.199589      -0.000410814  -0.000410814   0.00560686  -0.0142372
  7705.02      -0.00188066   0.198119      -0.00188066  -0.00188066  -0.00490203   0.0024365
  7705.75      -0.00218973   0.19781      -0.00218973  -0.00218973   0.018893   0.0352416
  7706.47       0.0161041   0.216104       0.0161041   0.0161041   0.0291307   0.0125286
  7707.2       0.0410047   0.241005       0.0410047   0.0410047   0.0264941  -0.0268013
  7707.91       0.0517092   0.251709       0.0517092   0.0517092   0.00296869  -0.01777
  7708.65       0.0532007   0.253201       0.0532007   0.0532007  -0.00341817  -0.012865
  7709.29       0.0486985   0.248698       0.0486985   0.0486985   0.00564624   0.0189138
  7709.9       0.0515319   0.251532       0.0515319   0.0515319  -0.00551542  -0.0282782
  7710.51       0.04373   0.24373       0.04373   0.04373  -0.00706426   0.022745
  7711.11       0.0444137   0.244414       0.0444137   0.0444137   0.00984198   0.0128081
  7711.73       0.0498101   0.24981       0.0498101   0.0498101  -0.00422577  -0.016148
  7712.33       0.0491094   0.249109       0.0491094   0.0491094  -0.00425946   0.00894267
  7712.95       0.0518047   0.251805       0.0518047   0.0518047   0.0187282   0.0388327
  7713.54       0.0677736   0.267774       0.0677736   0.0677736   0.0458732   0.0561092
  7714.16       0.106383       0.306383       0.106383       0.106383       0.0766327   0.0140463
  7714.78       0.149896       0.349896       0.149896       0.149896       0.0490044  -0.0490857
  7715.39       0.174771       0.374771       0.174771       0.174771       0.0517909   0.00949501
  7715.97       0.202005       0.402005       0.202005       0.202005       0.0197616  -0.0600894
  7716.26       0.207216       0.407216       0.207216       0.207216       0.0408107   0.125816
  7716.5       0.218769       0.418769       0.218769       0.218769       0.075969   0.10065
  7716.73       0.235808       0.435808       0.235808       0.235808       0.0538824  -0.149975
  7716.99       0.24493       0.44493       0.24493       0.24493       0.0425385   0.0815722
  7717.23       0.25837       0.45837       0.25837       0.25837       0.0377736   0.0994103
  7717.46       0.276602       0.476602       0.276602       0.276602       0.0767795  -0.104979
  7717.71       0.290045       0.490045       0.290045       0.290045       0.0827424   0.185345
  7717.96       0.315181       0.515181       0.315181       0.315181       0.0971191  -0.0552614
  7718.21       0.336761       0.536761       0.336761       0.336761       0.0987139   0.0167335
  7718.44       0.358375       0.558375       0.358375       0.358375       0.0903745  -0.032675
  7718.69       0.379535       0.579535       0.379535       0.379535       0.104167       0.16006
  7718.94       0.408962       0.608962       0.408962       0.408962       0.113832       0.0838249
  7719.17       0.441939       0.641939       0.441939       0.441939       0.124474      -0.0622643
  7719.42       0.473946       0.673946       0.473946       0.473946       0.180148       0.131241
  7719.67       0.51281       0.71281       0.51281       0.51281       0.132564      -0.0501819
  7719.9       0.546953       0.746953       0.546953       0.546953       0.169873       0.241693
  7720.15       0.598753       0.798753       0.598753       0.598753       0.202009      -0.0729529
  7720.4       0.644376       0.844376       0.644376       0.644376       0.181661      -0.0984524
  7720.65       0.685021       0.885021       0.685021       0.685021       0.172222       0.175795
  7720.88       0.733294       0.933294       0.733294       0.733294       0.218737       0.0281723
  7721.13       0.787685       0.987685       0.787685       0.787685       0.177009      -0.0719895
  7721.38       0.836237        1.03624       0.836237       0.836237       0.240029       0.208704
  7721.61       0.894575        2.23125       0.894687        2.03136       0.230624      -0.188072
  7721.86       0.945697        2.19929       0.946198        1.99979       0.253819      -0.0302292
  7722.1       0.9935        2.16889       0.994379        1.96977       0.144739       0.0323719
  7722.36        1.04575        2.13753        1.04702        1.93881       0.211579      -0.117894
  7722.59        1.08707        2.10903        1.08871        1.91067       0.141461      -0.327205
  7722.85        1.11129        2.07888        1.11332        1.88091       0.105729       0.260297
  7723.05        1.14339        2.05485        1.14575        1.85721       0.156769      -0.155927
  7723.41        1.18487        2.01409        1.18778        1.817       0.104142       0.0154982
  7723.8        1.23329        1.97011        1.23681        1.77363       0.096624  -0.165262
  7724.2        1.25609        1.92699        1.26023        1.73113       0.0131305  -0.140708
  7724.59        1.25671        1.88558        1.26146        1.69034       0.00980673  -0.039727
  7725.01        1.25086        1.84323        1.25626        1.64863      -0.0303293  -0.0262926
  7726.51        1.19299        1.70188        1.20073        1.50962      -0.0421897   0.0028276
  7728.07        1.13976        1.57276        1.14993        1.38292      -0.035189   0.00383944
  7729.59        1.09658        1.46286        1.10913        1.27541      -0.0119814   0.0162675
  7731.15        1.09114        1.36673        1.10611        1.1817      -0.000786786   0.00100223
  7732.68        1.08817        1.28638        1.10553        1.10373      -0.00899613  -0.00406888
  7734.21        1.07563        1.2191        1.09538        1.03885       0.000583838  -0.000587639
  7735.77        1.06147        1.16315        1.08365       0.985327      -0.0151012   0.00446683
  7737.31        1.05827        1.11928        1.08284       0.943849      -0.00564042  -0.0115338
  7738.84        1.02781        1.08531        1.05477       0.91227      -0.0180237   0.00524744
  7740.39        1.00964        1.06004        1.03901       0.889407      -0.0138387  -0.0061306
  7741.95       0.976416        1.0424        1.00822       0.874203      -0.024543  -2.90751e-05
  7746.97       0.869368        1.02621       0.908989       0.865833      -0.0158526   0.00180566
  7751.94       0.808251        1.04176       0.85561       0.88912      -0.010405   0.00097481
  7756.95       0.770992        1.05906       0.826163       0.914227      -0.000558433   0.00255735
  7761.95       0.79744        1.073       0.860399       0.935956       0.00749095   0.00111071
  7766.97       0.852074        1.08387       0.922851       0.954649       0.0109369   7.9915e-05
  7771.99       0.908755        1.09181       0.987357       0.970416       0.0104621  -0.0013568
  7777       0.931137        1.097        1.01755       0.983405       0.00219434  -0.000608328
  7784.15       0.936661        1.10003        1.03421       0.997581      -0.00405804  -0.000522182
  7791.28       0.915609        1.09843        1.02428        1.0071       0.000633038   0.000197888
  7798.44       0.904645        1.09275        1.02446        1.01256      -0.00338615  -0.000238942
  7805.61       0.881375        1.0835        1.01237        1.0145      -0.00352721   9.63796e-05
  7812.81       0.863035        1.07122        1.00524        1.01343       0.000551219  -2.83146e-05
  7819.99       0.843261        1.05651       0.996664        1.00991      -0.00382396   2.93049e-05
  7827.22       0.824897        1.03982       0.989563        1.00448      -0.0042201   7.12795e-05
  7834.44       0.810275        1.02183       0.986182       0.997733       0.000650253  -5.41594e-05
  7841.69       0.792732        1.00298       0.979939       0.990186      -0.00174689   0.000663593
  7845.32       0.801439       0.993438       0.994302       0.986301       0.00239866   0.00114203